#Time		#Wave		#Intensity
0.000000	1722.566406	12001.188477
0.000000	1721.590820	12376.465820
0.000000	1720.613281	12607.819336
0.000000	1719.636719	12271.249023
0.000000	1718.659180	12363.809570
0.000000	1717.682617	12528.244141
0.000000	1716.705078	12538.543945
0.000000	1715.727539	12330.619141
0.000000	1714.749023	12317.850586
0.000000	1713.771484	12371.808594
0.000000	1712.792969	12300.023438
0.000000	1711.814453	12507.872070
0.000000	1710.835938	12505.332031
0.000000	1709.856445	12389.969727
0.000000	1708.877930	12700.214844
0.000000	1707.898438	12643.807617
0.000000	1706.918945	12361.915039
0.000000	1705.939453	12710.404297
0.000000	1704.958984	12423.487305
0.000000	1703.979492	12620.718750
0.000000	1702.999023	12720.570313
0.000000	1702.018555	12802.459961
0.000000	1701.038086	12651.404297
0.000000	1700.056641	12705.123047
0.000000	1699.076172	12807.429688
0.000000	1698.094727	12592.513672
0.000000	1697.113281	12774.077148
0.000000	1696.131836	12804.710938
0.000000	1695.149414	12866.006836
0.000000	1694.167969	12812.265625
0.000000	1693.185547	13021.739258
0.000000	1692.203125	12924.554688
0.000000	1691.219727	13292.280273
0.000000	1690.237305	13136.341797
0.000000	1689.253906	13125.998047
0.000000	1688.270508	13187.131836
0.000000	1687.287109	12924.116211
0.000000	1686.303711	13220.013672
0.000000	1685.320313	13222.412109
0.000000	1684.335938	13013.108398
0.000000	1683.351563	13367.455078
0.000000	1682.367188	13331.574219
0.000000	1681.382813	13303.353516
0.000000	1680.397461	13336.307617
0.000000	1679.412109	13384.534180
0.000000	1678.426758	13526.996094
0.000000	1677.441406	13488.566406
0.000000	1676.456055	13546.914063
0.000000	1675.469727	13602.691406
0.000000	1674.483398	13785.711914
0.000000	1673.497070	13930.484375
0.000000	1672.510742	13947.979492
0.000000	1671.524414	14138.444336
0.000000	1670.537109	14099.934570
0.000000	1669.549805	14201.291016
0.000000	1668.562500	14165.323242
0.000000	1667.575195	14210.704102
0.000000	1666.587891	14489.854492
0.000000	1665.599609	14476.711914
0.000000	1664.611328	14351.806641
0.000000	1663.623047	14648.529297
0.000000	1662.634766	14597.271484
0.000000	1661.646484	14708.501953
0.000000	1660.657227	14497.353516
0.000000	1659.667969	14958.734375
0.000000	1658.678711	15011.466797
0.000000	1657.689453	15003.300781
0.000000	1656.699219	15139.685547
0.000000	1655.708984	15425.603516
0.000000	1654.718750	15508.609375
0.000000	1653.728516	15513.013672
0.000000	1652.738281	15679.582031
0.000000	1651.747070	15742.212891
0.000000	1650.756836	15784.553711
0.000000	1649.765625	16199.123047
0.000000	1648.773438	16360.342773
0.000000	1647.782227	16334.181641
0.000000	1646.790039	16426.972656
0.000000	1645.798828	16709.492188
0.000000	1644.806641	17176.558594
0.000000	1643.813477	16980.789063
0.000000	1642.821289	17283.242188
0.000000	1641.828125	17575.455078
0.000000	1640.834961	17549.068359
0.000000	1639.841797	17732.439453
0.000000	1638.848633	17857.621094
0.000000	1637.854492	18295.976563
0.000000	1636.861328	18373.001953
0.000000	1635.867188	18566.142578
0.000000	1634.873047	18855.130859
0.000000	1633.877930	19043.039063
0.000000	1632.883789	19364.609375
0.000000	1631.888672	19423.666016
0.000000	1630.893555	19903.927734
0.000000	1629.898438	20320.943359
0.000000	1628.902344	20573.898438
0.000000	1627.907227	21167.054688
0.000000	1626.911133	22090.115234
0.000000	1625.915039	22692.785156
0.000000	1624.918945	23305.277344
0.000000	1623.921875	24398.583984
0.000000	1622.924805	25546.833984
0.000000	1621.928711	26687.050781
0.000000	1620.930664	28121.294922
0.000000	1619.933594	29185.000000
0.000000	1618.936523	30889.857422
0.000000	1617.938477	31944.992188
0.000000	1616.940430	32768.300781
0.000000	1615.942383	33304.609375
0.000000	1614.943359	33767.789063
0.000000	1613.945313	34281.039063
0.000000	1612.946289	34110.554688
0.000000	1611.947266	34631.050781
0.000000	1610.948242	34651.460938
0.000000	1609.948242	34488.531250
0.000000	1608.949219	34878.050781
0.000000	1607.949219	34185.460938
0.000000	1606.949219	34471.972656
0.000000	1605.948242	34181.230469
0.000000	1604.948242	34389.843750
0.000000	1603.947266	33803.265625
0.000000	1602.946289	34315.296875
0.000000	1601.945313	35258.347656
0.000000	1600.944336	35506.656250
0.000000	1599.942383	36328.765625
0.000000	1598.940430	37325.914063
0.000000	1597.938477	38437.878906
0.000000	1596.936523	39561.894531
0.000000	1595.934570	40687.945313
0.000000	1594.931641	42657.199219
0.000000	1593.928711	43712.035156
0.000000	1592.925781	45309.460938
0.000000	1591.922852	47291.511719
0.000000	1590.918945	48382.226563
0.000000	1589.915039	49910.136719
0.000000	1588.911133	52177.507813
0.000000	1587.907227	52964.019531
0.000000	1586.903320	55019.847656
0.000000	1585.898438	56600.039063
0.000000	1584.894531	57370.125000
0.000000	1583.889648	58242.289063
0.000000	1582.883789	58504.761719
0.000000	1581.878906	58901.941406
0.000000	1580.873047	58243.070313
0.000000	1579.867188	56955.570313
0.000000	1578.861328	55351.722656
0.000000	1577.855469	54496.921875
0.000000	1576.848633	52233.328125
0.000000	1575.842773	49973.171875
0.000000	1574.835938	47925.871094
0.000000	1573.828125	45734.855469
0.000000	1572.821289	43893.640625
0.000000	1571.813477	41936.093750
0.000000	1570.805664	40098.929688
0.000000	1569.797852	38419.433594
0.000000	1568.790039	36807.867188
0.000000	1567.782227	35926.355469
0.000000	1566.773438	34609.664063
0.000000	1565.764648	33733.957031
0.000000	1564.755859	33303.929688
0.000000	1563.747070	32573.121094
0.000000	1562.737305	32489.167969
0.000000	1561.727539	32231.212891
0.000000	1560.717773	31670.109375
0.000000	1559.708008	31690.767578
0.000000	1558.697266	31589.667969
0.000000	1557.687500	30922.230469
0.000000	1556.676758	30751.789063
0.000000	1555.666016	30454.779297
0.000000	1554.654297	30003.976563
0.000000	1553.643555	29873.541016
0.000000	1552.631836	29584.341797
0.000000	1551.620117	29305.185547
0.000000	1550.608398	29130.324219
0.000000	1549.596680	28908.416016
0.000000	1548.583984	28763.458984
0.000000	1547.571289	28859.011719
0.000000	1546.558594	28746.339844
0.000000	1545.545898	28861.673828
0.000000	1544.532227	29100.820313
0.000000	1543.518555	29498.376953
0.000000	1542.504883	29442.609375
0.000000	1541.491211	29857.250000
0.000000	1540.477539	30217.259766
0.000000	1539.462891	30431.105469
0.000000	1538.448242	30877.429688
0.000000	1537.433594	30499.843750
0.000000	1536.418945	30587.359375
0.000000	1535.404297	31129.789063
0.000000	1534.388672	31078.693359
0.000000	1533.373047	31254.998047
0.000000	1532.357422	31161.884766
0.000000	1531.340820	31335.619141
0.000000	1530.325195	31479.638672
0.000000	1529.308594	31423.570313
0.000000	1528.291992	31723.044922
0.000000	1527.275391	32158.152344
0.000000	1526.257813	32955.847656
0.000000	1525.240234	32721.853516
0.000000	1524.223633	33390.808594
0.000000	1523.205078	33277.664063
0.000000	1522.187500	33748.953125
0.000000	1521.168945	34027.746094
0.000000	1520.151367	34008.187500
0.000000	1519.132813	34318.839844
0.000000	1518.113281	34695.871094
0.000000	1517.094727	34747.609375
0.000000	1516.075195	35121.921875
0.000000	1515.055664	35648.722656
0.000000	1514.036133	35316.207031
0.000000	1513.016602	36369.402344
0.000000	1511.996094	36652.000000
0.000000	1510.975586	38102.972656
0.000000	1509.955078	38808.105469
0.000000	1508.934570	39060.484375
0.000000	1507.914063	39969.156250
0.000000	1506.892578	39712.386719
0.000000	1505.871094	39082.203125
0.000000	1504.849609	38447.371094
0.000000	1503.827148	38168.976563
0.000000	1502.805664	37728.609375
0.000000	1501.783203	37060.089844
0.000000	1500.760742	36494.949219
0.000000	1499.738281	36332.542969
0.000000	1498.714844	36270.804688
0.000000	1497.691406	35478.039063
0.000000	1496.668945	34898.988281
0.000000	1495.644531	34820.421875
0.000000	1494.621094	34168.207031
0.000000	1493.596680	33807.949219
0.000000	1492.573242	34092.339844
0.000000	1491.547852	34207.554688
0.000000	1490.523438	33737.281250
0.000000	1489.499023	33703.125000
0.000000	1488.473633	34440.253906
0.000000	1487.448242	34114.652344
0.000000	1486.422852	34222.378906
0.000000	1485.396484	34107.390625
0.000000	1484.371094	34523.312500
0.000000	1483.344727	34784.964844
0.000000	1482.318359	34134.394531
0.000000	1481.291992	34498.695313
0.000000	1480.264648	34488.859375
0.000000	1479.237305	34300.628906
0.000000	1478.209961	34420.328125
0.000000	1477.182617	34901.492188
0.000000	1476.155273	36046.722656
0.000000	1475.126953	35819.242188
0.000000	1474.098633	36067.878906
0.000000	1473.070313	36274.917969
0.000000	1472.041992	36525.785156
0.000000	1471.012695	36671.636719
0.000000	1469.983398	36846.695313
0.000000	1468.954102	36575.425781
0.000000	1467.924805	36491.992188
0.000000	1466.895508	36567.027344
0.000000	1465.865234	36771.187500
0.000000	1464.834961	36904.601563
0.000000	1463.804688	36930.773438
0.000000	1462.773438	37217.515625
0.000000	1461.743164	37487.089844
0.000000	1460.711914	37673.777344
0.000000	1459.680664	37806.835938
0.000000	1458.649414	38762.285156
0.000000	1457.617188	39474.046875
0.000000	1456.584961	39973.890625
0.000000	1455.552734	40702.097656
0.000000	1454.520508	41566.132813
0.000000	1453.488281	42359.308594
0.000000	1452.455078	43268.781250
0.000000	1451.421875	43917.890625
0.000000	1450.388672	45327.023438
0.000000	1449.355469	45764.117188
0.000000	1448.321289	47145.531250
0.000000	1447.288086	47475.222656
0.000000	1446.253906	48714.894531
0.000000	1445.218750	50102.046875
0.000000	1444.184570	51347.890625
0.000000	1443.149414	52370.050781
0.000000	1442.114258	53896.148438
0.000000	1441.079102	55535.527344
0.000000	1440.043945	56926.960938
0.000000	1439.007813	59127.187500
0.000000	1437.971680	60228.917969
0.000000	1436.935547	61817.050781
0.000000	1435.899414	63159.894531
0.000000	1434.862305	63320.582031
0.000000	1433.826172	63897.558594
0.000000	1432.789063	63721.597656
0.000000	1431.750977	62747.210938
0.000000	1430.713867	61715.179688
0.000000	1429.675781	59648.410156
0.000000	1428.637695	57717.949219
0.000000	1427.599609	56218.644531
0.000000	1426.561523	53704.820313
0.000000	1425.522461	52620.253906
0.000000	1424.483398	49951.242188
0.000000	1423.444336	48694.031250
0.000000	1422.405273	46794.976563
0.000000	1421.365234	45932.542969
0.000000	1420.326172	45430.152344
0.000000	1419.286133	45466.167969
0.000000	1418.245117	45680.714844
0.000000	1417.205078	45559.847656
0.000000	1416.164063	45981.691406
0.000000	1415.123047	45720.945313
0.000000	1414.082031	45672.460938
0.000000	1413.041016	44720.140625
0.000000	1411.999023	44141.742188
0.000000	1410.957031	43705.734375
0.000000	1409.915039	42369.054688
0.000000	1408.873047	42029.941406
0.000000	1407.831055	41580.218750
0.000000	1406.788086	41263.078125
0.000000	1405.745117	41417.765625
0.000000	1404.702148	41201.847656
0.000000	1403.658203	41022.105469
0.000000	1402.614258	41087.750000
0.000000	1401.571289	41278.394531
0.000000	1400.526367	41824.746094
0.000000	1399.482422	41832.480469
0.000000	1398.437500	42520.242188
0.000000	1397.393555	42823.312500
0.000000	1396.347656	43104.628906
0.000000	1395.302734	43390.625000
0.000000	1394.257813	43794.132813
0.000000	1393.211914	44629.519531
0.000000	1392.166016	45056.574219
0.000000	1391.120117	45514.628906
0.000000	1390.073242	46291.515625
0.000000	1389.026367	46535.652344
0.000000	1387.979492	46957.105469
0.000000	1386.932617	46985.234375
0.000000	1385.885742	46718.550781
0.000000	1384.837891	47046.230469
0.000000	1383.790039	47146.175781
0.000000	1382.742188	47499.953125
0.000000	1381.694336	46823.898438
0.000000	1380.645508	47033.945313
0.000000	1379.596680	47179.265625
0.000000	1378.547852	47094.789063
0.000000	1377.499023	47364.437500
0.000000	1376.450195	47760.738281
0.000000	1375.400391	47575.734375
0.000000	1374.350586	47737.496094
0.000000	1373.300781	48104.761719
0.000000	1372.250000	47886.332031
0.000000	1371.199219	48501.890625
0.000000	1370.148438	48109.078125
0.000000	1369.097656	48158.273438
0.000000	1368.046875	47617.656250
0.000000	1366.995117	47623.957031
0.000000	1365.943359	47002.535156
0.000000	1364.891602	46056.851563
0.000000	1363.839844	45958.507813
0.000000	1362.787109	45430.867188
0.000000	1361.735352	44662.597656
0.000000	1360.682617	44109.238281
0.000000	1359.628906	43289.148438
0.000000	1358.576172	42865.011719
0.000000	1357.522461	42267.128906
0.000000	1356.468750	41243.113281
0.000000	1355.415039	40274.316406
0.000000	1354.360352	39848.816406
0.000000	1353.306641	38545.093750
0.000000	1352.251953	38155.847656
0.000000	1351.196289	37562.140625
0.000000	1350.141602	37123.316406
0.000000	1349.085938	36708.468750
0.000000	1348.030273	36336.601563
0.000000	1346.974609	36055.234375
0.000000	1345.918945	35985.527344
0.000000	1344.862305	35480.976563
0.000000	1343.806641	35192.847656
0.000000	1342.749023	35833.574219
0.000000	1341.692383	35771.089844
0.000000	1340.635742	35839.210938
0.000000	1339.578125	35836.089844
0.000000	1338.520508	35840.082031
0.000000	1337.462891	35725.441406
0.000000	1336.404297	36313.003906
0.000000	1335.345703	36269.449219
0.000000	1334.287109	35943.746094
0.000000	1333.228516	35931.101563
0.000000	1332.169922	35657.753906
0.000000	1331.110352	35424.804688
0.000000	1330.050781	35158.789063
0.000000	1328.991211	34419.183594
0.000000	1327.930664	33852.765625
0.000000	1326.871094	33987.363281
0.000000	1325.810547	33366.843750
0.000000	1324.750000	33094.460938
0.000000	1323.688477	32985.437500
0.000000	1322.627930	32578.423828
0.000000	1321.566406	32278.005859
0.000000	1320.504883	32188.142578
0.000000	1319.443359	31753.197266
0.000000	1318.380859	31720.203125
0.000000	1317.318359	31779.369141
0.000000	1316.255859	31713.306641
0.000000	1315.193359	32044.042969
0.000000	1314.129883	32008.640625
0.000000	1313.067383	32369.847656
0.000000	1312.003906	32570.402344
0.000000	1310.939453	32961.996094
0.000000	1309.875977	33115.144531
0.000000	1308.811523	33864.949219
0.000000	1307.747070	33862.187500
0.000000	1306.682617	34078.679688
0.000000	1305.617188	34610.917969
0.000000	1304.552734	35376.210938
0.000000	1303.487305	35662.898438
0.000000	1302.421875	35958.875000
0.000000	1301.355469	36607.960938
0.000000	1300.290039	36517.464844
0.000000	1299.223633	36657.687500
0.000000	1298.157227	36630.753906
0.000000	1297.089844	37140.289063
0.000000	1296.023438	37045.035156
0.000000	1294.956055	37232.039063
0.000000	1293.888672	36598.347656
0.000000	1292.820313	36301.101563
0.000000	1291.752930	35611.480469
0.000000	1290.684570	35443.812500
0.000000	1289.616211	35341.992188
0.000000	1288.546875	34537.949219
0.000000	1287.478516	34304.871094
0.000000	1286.409180	34142.324219
0.000000	1285.339844	33191.199219
0.000000	1284.270508	33289.437500
0.000000	1283.200195	32885.566406
0.000000	1282.129883	32334.093750
0.000000	1281.059570	32387.894531
0.000000	1279.989258	32258.792969
0.000000	1278.918945	31871.902344
0.000000	1277.847656	31625.791016
0.000000	1276.776367	31187.660156
0.000000	1275.705078	31297.861328
0.000000	1274.632813	31094.189453
0.000000	1273.561523	30312.267578
0.000000	1272.489258	30333.626953
0.000000	1271.416016	29898.595703
0.000000	1270.343750	29758.580078
0.000000	1269.270508	29436.152344
0.000000	1268.197266	29085.800781
0.000000	1267.124023	28520.476563
0.000000	1266.050781	28703.498047
0.000000	1264.976563	28605.960938
0.000000	1263.902344	28440.699219
0.000000	1262.828125	28235.791016
0.000000	1261.753906	28656.945313
0.000000	1260.678711	28655.238281
0.000000	1259.603516	29125.134766
0.000000	1258.528320	29562.142578
0.000000	1257.452148	29798.257813
0.000000	1256.376953	30001.603516
0.000000	1255.300781	29885.287109
0.000000	1254.224609	29680.402344
0.000000	1253.147461	29359.029297
0.000000	1252.071289	29538.968750
0.000000	1250.994141	29059.289063
0.000000	1249.916992	29069.119141
0.000000	1248.839844	28797.076172
0.000000	1247.761719	28445.966797
0.000000	1246.683594	27652.607422
0.000000	1245.605469	27264.658203
0.000000	1244.527344	26974.630859
0.000000	1243.448242	26856.917969
0.000000	1242.369141	26488.009766
0.000000	1241.290039	26309.982422
0.000000	1240.210938	25894.849609
0.000000	1239.130859	26026.230469
0.000000	1238.050781	26510.839844
0.000000	1236.970703	26068.048828
0.000000	1235.890625	26057.576172
0.000000	1234.810547	26297.960938
0.000000	1233.729492	26196.871094
0.000000	1232.648438	26664.638672
0.000000	1231.566406	26725.988281
0.000000	1230.485352	27044.902344
0.000000	1229.403320	26753.474609
0.000000	1228.321289	26805.478516
0.000000	1227.239258	26940.943359
0.000000	1226.156250	27206.185547
0.000000	1225.073242	27336.859375
0.000000	1223.990234	27720.083984
0.000000	1222.907227	28003.503906
0.000000	1221.823242	28492.960938
0.000000	1220.740234	28102.123047
0.000000	1219.656250	28679.322266
0.000000	1218.571289	28927.537109
0.000000	1217.487305	28775.242188
0.000000	1216.402344	29071.912109
0.000000	1215.317383	29312.923828
0.000000	1214.232422	29687.972656
0.000000	1213.146484	29748.369141
0.000000	1212.060547	29461.962891
0.000000	1210.974609	29663.367188
0.000000	1209.888672	29386.345703
0.000000	1208.802734	29488.330078
0.000000	1207.715820	29474.777344
0.000000	1206.628906	28971.671875
0.000000	1205.541992	29551.578125
0.000000	1204.454102	29734.208984
0.000000	1203.366211	30105.986328
0.000000	1202.278320	30076.146484
0.000000	1201.190430	30523.792969
0.000000	1200.101563	31169.562500
0.000000	1199.013672	31134.884766
0.000000	1197.924805	31469.033203
0.000000	1196.834961	32047.312500
0.000000	1195.746094	32401.835938
0.000000	1194.656250	32645.626953
0.000000	1193.566406	33105.789063
0.000000	1192.476563	33929.535156
0.000000	1191.385742	34690.750000
0.000000	1190.294922	36151.265625
0.000000	1189.204102	36755.167969
0.000000	1188.113281	38463.000000
0.000000	1187.021484	40075.757813
0.000000	1185.930664	42060.289063
0.000000	1184.838867	43765.757813
0.000000	1183.746094	45932.417969
0.000000	1182.654297	47679.894531
0.000000	1181.561523	49812.523438
0.000000	1180.468750	51415.925781
0.000000	1179.375977	52697.121094
0.000000	1178.282227	54184.351563
0.000000	1177.188477	56589.000000
0.000000	1176.094727	58939.777344
0.000000	1175.000977	61723.089844
0.000000	1173.906250	64358.347656
0.000000	1172.811523	65742.632813
0.000000	1171.716797	65865.328125
0.000000	1170.622070	65410.355469
0.000000	1169.526367	63310.203125
0.000000	1168.431641	61925.816406
0.000000	1167.334961	59591.460938
0.000000	1166.239258	57551.285156
0.000000	1165.143555	54925.902344
0.000000	1164.046875	52281.105469
0.000000	1162.950195	49568.843750
0.000000	1161.852539	47148.378906
0.000000	1160.755859	45092.710938
0.000000	1159.658203	43591.414063
0.000000	1158.560547	41734.105469
0.000000	1157.461914	39827.347656
0.000000	1156.364258	38588.781250
0.000000	1155.265625	37199.972656
0.000000	1154.166992	35485.125000
0.000000	1153.067383	34791.929688
0.000000	1151.967773	34039.675781
0.000000	1150.869141	32879.140625
0.000000	1149.768555	32264.593750
0.000000	1148.668945	31479.189453
0.000000	1147.568359	31319.201172
0.000000	1146.467773	30445.414063
0.000000	1145.367188	29743.037109
0.000000	1144.266602	29364.691406
0.000000	1143.165039	28890.789063
0.000000	1142.063477	28613.064453
0.000000	1140.961914	28173.714844
0.000000	1139.859375	28174.142578
0.000000	1138.757813	27541.535156
0.000000	1137.655273	27523.888672
0.000000	1136.551758	27560.873047
0.000000	1135.449219	27251.953125
0.000000	1134.345703	27275.328125
0.000000	1133.242188	26934.767578
0.000000	1132.138672	26926.361328
0.000000	1131.034180	27124.841797
0.000000	1129.929688	26902.734375
0.000000	1128.825195	27430.628906
0.000000	1127.720703	26913.197266
0.000000	1126.616211	27047.890625
0.000000	1125.510742	27132.560547
0.000000	1124.405273	27055.994141
0.000000	1123.298828	27453.857422
0.000000	1122.193359	27259.242188
0.000000	1121.086914	27359.656250
0.000000	1119.980469	26965.535156
0.000000	1118.873047	27061.431641
0.000000	1117.766602	26486.169922
0.000000	1116.659180	26643.330078
0.000000	1115.551758	26605.517578
0.000000	1114.443359	26687.802734
0.000000	1113.335938	26475.574219
0.000000	1112.227539	26050.558594
0.000000	1111.118164	25806.869141
0.000000	1110.009766	25576.869141
0.000000	1108.900391	25251.919922
0.000000	1107.791016	25142.064453
0.000000	1106.681641	24649.964844
0.000000	1105.572266	24296.042969
0.000000	1104.461914	24118.642578
0.000000	1103.351563	23656.494141
0.000000	1102.241211	23594.578125
0.000000	1101.129883	23186.984375
0.000000	1100.018555	22831.531250
0.000000	1098.907227	22342.988281
0.000000	1097.795898	22376.253906
0.000000	1096.683594	22228.908203
0.000000	1095.572266	22185.443359
0.000000	1094.458984	21950.205078
0.000000	1093.346680	22028.638672
0.000000	1092.234375	22152.140625
0.000000	1091.121094	21874.222656
0.000000	1090.006836	21979.664063
0.000000	1088.893555	21981.380859
0.000000	1087.779297	22553.175781
0.000000	1086.666016	22496.183594
0.000000	1085.550781	22605.880859
0.000000	1084.436523	22411.541016
0.000000	1083.321289	23138.037109
0.000000	1082.206055	22936.908203
0.000000	1081.090820	22949.636719
0.000000	1079.974609	22991.603516
0.000000	1078.859375	23332.683594
0.000000	1077.743164	23277.845703
0.000000	1076.625977	23769.324219
0.000000	1075.509766	24083.011719
0.000000	1074.392578	24929.111328
0.000000	1073.275391	24860.468750
0.000000	1072.158203	25530.802734
0.000000	1071.040039	25167.882813
0.000000	1069.921875	24715.326172
0.000000	1068.803711	24610.873047
0.000000	1067.685547	24470.562500
0.000000	1066.566406	24213.652344
0.000000	1065.447266	23665.277344
0.000000	1064.328125	23653.089844
0.000000	1063.208008	23369.636719
0.000000	1062.088867	23366.486328
0.000000	1060.968750	23524.675781
0.000000	1059.847656	23100.298828
0.000000	1058.727539	23137.521484
0.000000	1057.606445	22390.960938
0.000000	1056.485352	22208.923828
0.000000	1055.364258	22241.841797
0.000000	1054.242188	21831.666016
0.000000	1053.120117	21640.925781
0.000000	1051.998047	21497.244141
0.000000	1050.875977	21143.421875
0.000000	1049.752930	21026.746094
0.000000	1048.629883	20713.425781
0.000000	1047.506836	20648.294922
0.000000	1046.383789	20413.398438
0.000000	1045.259766	20259.017578
0.000000	1044.135742	19914.892578
0.000000	1043.011719	20097.816406
0.000000	1041.886719	19974.859375
0.000000	1040.762695	19814.021484
0.000000	1039.637695	19858.509766
0.000000	1038.511719	19858.367188
0.000000	1037.386719	19820.310547
0.000000	1036.260742	19962.859375
0.000000	1035.134766	19728.642578
0.000000	1034.007813	19782.003906
0.000000	1032.881836	20185.123047
0.000000	1031.754883	20049.017578
0.000000	1030.627930	20120.076172
0.000000	1029.500000	20313.550781
0.000000	1028.372070	20607.095703
0.000000	1027.245117	20364.193359
0.000000	1026.116211	20590.841797
0.000000	1024.988281	20650.558594
0.000000	1023.859375	20207.667969
0.000000	1022.730469	20051.783203
0.000000	1021.601563	19698.142578
0.000000	1020.471680	19500.222656
0.000000	1019.341797	19831.162109
0.000000	1018.211914	19744.359375
0.000000	1017.082031	19839.691406
0.000000	1015.951172	20174.755859
0.000000	1014.820313	20278.818359
0.000000	1013.689453	20480.472656
0.000000	1012.557617	20657.623047
0.000000	1011.426758	20430.996094
0.000000	1010.293945	20290.957031
0.000000	1009.162109	19971.396484
0.000000	1008.030273	20319.167969
0.000000	1006.897461	20021.908203
0.000000	1005.764648	20112.500000
0.000000	1004.630859	20194.187500
0.000000	1003.498047	20326.767578
0.000000	1002.364258	20089.552734
0.000000	1001.230469	20591.736328
0.000000	1000.095703	20542.664063
0.000000	998.960938	20338.742188
0.000000	997.826172	20559.599609
0.000000	996.691406	20579.113281
0.000000	995.556641	20660.521484
0.000000	994.420898	20978.396484
0.000000	993.285156	20907.189453
0.000000	992.148438	20986.246094
0.000000	991.012695	20901.812500
0.000000	989.875977	21133.201172
0.000000	988.739258	21346.816406
0.000000	987.601563	21238.072266
0.000000	986.463867	21475.830078
0.000000	985.326172	21651.703125
0.000000	984.188477	21651.033203
0.000000	983.049805	21707.697266
0.000000	981.912109	21746.695313
0.000000	980.773438	21613.750000
0.000000	979.633789	21738.687500
0.000000	978.495117	22026.591797
0.000000	977.355469	22107.316406
0.000000	976.214844	21908.339844
0.000000	975.075195	22187.189453
0.000000	973.934570	22413.080078
0.000000	972.793945	22128.341797
0.000000	971.653320	22083.535156
0.000000	970.511719	22285.089844
0.000000	969.370117	22356.806641
0.000000	968.228516	22479.052734
0.000000	967.086914	22473.757813
0.000000	965.944336	22479.451172
0.000000	964.801758	22302.796875
0.000000	963.659180	22376.609375
0.000000	962.516602	22516.259766
0.000000	961.373047	22181.648438
0.000000	960.229492	22167.636719
0.000000	959.084961	22201.904297
0.000000	957.941406	21988.255859
0.000000	956.796875	21329.472656
0.000000	955.652344	21688.431641
0.000000	954.506836	21521.083984
0.000000	953.362305	21252.994141
0.000000	952.216797	21131.837891
0.000000	951.070313	21271.425781
0.000000	949.924805	21205.072266
0.000000	948.778320	21287.642578
0.000000	947.631836	21267.281250
0.000000	946.485352	21577.408203
0.000000	945.337891	21627.001953
0.000000	944.190430	21783.761719
0.000000	943.042969	22119.781250
0.000000	941.894531	22505.929688
0.000000	940.747070	22570.546875
0.000000	939.597656	22464.666016
0.000000	938.449219	22393.789063
0.000000	937.300781	22292.363281
0.000000	936.151367	22038.105469
0.000000	935.001953	21325.449219
0.000000	933.851563	21444.812500
0.000000	932.701172	20889.759766
0.000000	931.550781	20601.156250
0.000000	930.400391	20166.537109
0.000000	929.250000	20109.406250
0.000000	928.098633	20135.150391
0.000000	926.947266	20370.140625
0.000000	925.794922	20493.873047
0.000000	924.642578	20900.781250
0.000000	923.490234	22039.382813
0.000000	922.337891	22881.267578
0.000000	921.185547	24288.822266
0.000000	920.032227	25432.324219
0.000000	918.878906	26618.802734
0.000000	917.724609	27654.591797
0.000000	916.571289	28043.873047
0.000000	915.416992	28372.076172
0.000000	914.262695	28737.078125
0.000000	913.107422	28873.677734
0.000000	911.952148	28538.658203
0.000000	910.796875	28045.199219
0.000000	909.641602	27126.257813
0.000000	908.485352	26277.240234
0.000000	907.329102	25285.339844
0.000000	906.172852	24656.376953
0.000000	905.016602	24164.417969
0.000000	903.859375	24297.482422
0.000000	902.702148	24523.742188
0.000000	901.544922	24491.855469
0.000000	900.386719	23928.853516
0.000000	899.228516	23344.445313
0.000000	898.070313	22478.626953
0.000000	896.911133	22221.951172
0.000000	895.752930	22030.369141
0.000000	894.593750	21771.753906
0.000000	893.433594	21537.070313
0.000000	892.274414	20969.207031
0.000000	891.114258	20795.408203
0.000000	889.954102	20513.529297
0.000000	888.792969	20296.664063
0.000000	887.632813	20075.576172
0.000000	886.470703	19882.693359
0.000000	885.309570	19947.072266
0.000000	884.148438	20015.740234
0.000000	882.986328	20105.972656
0.000000	881.824219	19757.767578
0.000000	880.661133	19765.970703
0.000000	879.498047	19806.544922
0.000000	878.334961	19506.132813
0.000000	877.171875	19210.177734
0.000000	876.007813	19151.626953
0.000000	874.843750	18948.621094
0.000000	873.679688	18976.394531
0.000000	872.515625	18808.011719
0.000000	871.350586	18702.197266
0.000000	870.185547	18712.767578
0.000000	869.020508	18949.482422
0.000000	867.854492	18699.431641
0.000000	866.688477	18819.781250
0.000000	865.522461	18980.962891
0.000000	864.356445	18952.708984
0.000000	863.189453	19038.480469
0.000000	862.022461	18896.234375
0.000000	860.854492	19396.962891
0.000000	859.687500	19256.841797
0.000000	858.519531	19449.906250
0.000000	857.351563	19687.996094
0.000000	856.182617	19883.005859
0.000000	855.013672	19876.044922
0.000000	853.844727	20040.849609
0.000000	852.675781	19838.509766
0.000000	851.505859	20089.082031
0.000000	850.335938	20247.271484
0.000000	849.166016	20358.191406
0.000000	847.995117	20692.080078
0.000000	846.825195	20777.105469
0.000000	845.653320	20782.779297
0.000000	844.482422	20942.736328
0.000000	843.310547	20712.699219
0.000000	842.138672	20966.833984
0.000000	840.966797	20944.605469
0.000000	839.793945	20742.556641
0.000000	838.622070	20977.228516
0.000000	837.448242	20728.187500
0.000000	836.275391	20798.017578
0.000000	835.101563	21237.816406
0.000000	833.927734	20903.357422
0.000000	832.753906	21084.246094
0.000000	831.579102	21491.585938
0.000000	830.404297	21742.748047
0.000000	829.229492	21963.878906
0.000000	828.054688	22172.083984
0.000000	826.878906	22049.244141
0.000000	825.703125	22443.029297
0.000000	824.526367	22599.738281
0.000000	823.350586	22485.408203
0.000000	822.173828	22486.314453
0.000000	820.996094	22427.507813
0.000000	819.819336	22439.080078
0.000000	818.641602	22648.871094
0.000000	817.463867	22547.437500
0.000000	816.285156	22552.572266
0.000000	815.107422	22502.324219
0.000000	813.928711	22586.248047
0.000000	812.749023	22936.232422
0.000000	811.570313	23383.947266
0.000000	810.390625	23629.296875
0.000000	809.209961	23876.650391
0.000000	808.030273	24189.808594
0.000000	806.849609	24683.541016
0.000000	805.668945	24958.076172
0.000000	804.488281	25145.341797
0.000000	803.306641	25319.763672
0.000000	802.125000	25339.033203
0.000000	800.943359	25046.115234
0.000000	799.760742	25005.988281
0.000000	798.578125	24588.056641
0.000000	797.395508	24548.054688
0.000000	796.211914	23922.521484
0.000000	795.029297	23878.455078
0.000000	793.844727	23596.908203
0.000000	792.661133	23374.857422
0.000000	791.476563	23055.417969
0.000000	790.291992	22725.539063
0.000000	789.107422	22298.371094
0.000000	787.922852	22106.496094
0.000000	786.737305	21603.460938
0.000000	785.550781	21162.058594
0.000000	784.365234	20517.705078
0.000000	783.178711	20260.855469
0.000000	781.992188	19703.763672
0.000000	780.805664	19523.367188
0.000000	779.618164	19264.832031
0.000000	778.430664	19160.722656
0.000000	777.243164	19185.566406
0.000000	776.054688	19218.843750
0.000000	774.866211	19598.494141
0.000000	773.677734	19323.353516
0.000000	772.489258	19432.562500
0.000000	771.299805	19182.919922
0.000000	770.110352	19159.171875
0.000000	768.919922	19023.628906
0.000000	767.730469	19166.539063
0.000000	766.540039	19503.351563
0.000000	765.348633	19835.781250
0.000000	764.158203	20844.523438
0.000000	762.966797	22200.400391
0.000000	761.774414	23618.791016
0.000000	760.583008	23930.900391
0.000000	759.390625	23324.929688
0.000000	758.198242	22418.267578
0.000000	757.005859	21312.148438
0.000000	755.812500	20734.619141
0.000000	754.619141	20087.966797
0.000000	753.424805	19929.462891
0.000000	752.231445	20082.158203
0.000000	751.037109	20348.263672
0.000000	749.842773	20465.052734
0.000000	748.647461	20558.673828
0.000000	747.452148	20482.136719
0.000000	746.256836	21010.310547
0.000000	745.060547	20776.265625
0.000000	743.865234	20911.671875
0.000000	742.668945	20616.919922
0.000000	741.471680	20276.169922
0.000000	740.274414	20071.886719
0.000000	739.077148	20194.744141
0.000000	737.879883	20766.054688
0.000000	736.681641	21582.234375
0.000000	735.484375	22155.001953
0.000000	734.285156	23517.033203
0.000000	733.086914	24637.593750
0.000000	731.887695	25083.556641
0.000000	730.688477	25135.857422
0.000000	729.488281	24771.779297
0.000000	728.288086	24487.363281
0.000000	727.087891	24244.908203
0.000000	725.887695	23755.878906
0.000000	724.686523	23417.578125
0.000000	723.485352	22960.335938
0.000000	722.284180	22451.095703
0.000000	721.082031	21545.287109
0.000000	719.879883	20777.740234
0.000000	718.677734	20279.859375
0.000000	717.474609	19316.837891
0.000000	716.272461	19080.375000
0.000000	715.068359	19161.083984
0.000000	713.865234	18774.625000
0.000000	712.661133	18580.166016
0.000000	711.457031	18675.521484
0.000000	710.251953	18272.798828
0.000000	709.047852	17914.025391
0.000000	707.842773	18242.736328
0.000000	706.636719	18009.078125
0.000000	705.431641	18143.996094
0.000000	704.225586	17964.585938
0.000000	703.018555	17883.052734
0.000000	701.812500	18271.664063
0.000000	700.605469	18052.837891
0.000000	699.397461	17996.285156
0.000000	698.190430	18085.255859
0.000000	696.982422	18153.396484
0.000000	695.774414	18375.234375
0.000000	694.565430	18459.876953
0.000000	693.356445	18475.953125
0.000000	692.147461	18157.798828
0.000000	690.938477	18532.974609
0.000000	689.728516	18605.031250
0.000000	688.518555	18455.097656
0.000000	687.308594	18493.949219
0.000000	686.097656	18615.708984
0.000000	684.886719	18457.585938
0.000000	683.674805	18376.212891
0.000000	682.463867	18481.326172
0.000000	681.251953	18644.376953
0.000000	680.040039	18329.029297
0.000000	678.827148	18626.583984
0.000000	677.614258	18524.558594
0.000000	676.401367	18778.455078
0.000000	675.187500	18475.792969
0.000000	673.973633	18413.167969
0.000000	672.759766	18737.181641
0.000000	671.545898	19395.865234
0.000000	670.331055	19361.972656
0.000000	669.116211	19937.519531
0.000000	667.900391	20291.779297
0.000000	666.684570	20175.080078
0.000000	665.468750	20351.564453
0.000000	664.252930	20439.212891
0.000000	663.036133	20553.634766
0.000000	661.819336	20195.642578
0.000000	660.602539	20008.988281
0.000000	659.384766	20127.544922
0.000000	658.166992	20357.335938
0.000000	656.948242	20529.310547
0.000000	655.730469	20734.152344
0.000000	654.511719	20695.865234
0.000000	653.291992	21382.351563
0.000000	652.073242	21362.435547
0.000000	650.853516	22068.966797
0.000000	649.633789	21999.501953
0.000000	648.413086	22022.625000
0.000000	647.192383	22321.279297
0.000000	645.971680	22344.298828
0.000000	644.750000	22692.035156
0.000000	643.528320	22803.292969
0.000000	642.306641	22672.095703
0.000000	641.084961	22339.703125
0.000000	639.862305	22048.541016
0.000000	638.639648	21396.269531
0.000000	637.416016	21380.470703
0.000000	636.192383	21241.585938
0.000000	634.968750	21451.437500
0.000000	633.745117	21271.589844
0.000000	632.520508	21141.027344
0.000000	631.295898	21295.398438
0.000000	630.070313	21238.650391
0.000000	628.844727	20972.998047
0.000000	627.619141	20889.734375
0.000000	626.393555	20839.267578
0.000000	625.166992	21106.068359
0.000000	623.940430	21225.398438
0.000000	622.712891	21043.947266
0.000000	621.486328	20846.226563
0.000000	620.258789	20795.816406
0.000000	619.030273	20585.992188
0.000000	617.802734	20396.707031
0.000000	616.573242	20415.906250
0.000000	615.344727	20494.322266
0.000000	614.115234	20407.296875
5.000000	1722.566406	12787.729492
5.000000	1721.590820	12499.844727
5.000000	1720.613281	12746.592773
5.000000	1719.636719	12952.128906
5.000000	1718.659180	12795.374023
5.000000	1717.682617	12987.972656
5.000000	1716.705078	13008.450195
5.000000	1715.727539	12967.302734
5.000000	1714.749023	12969.806641
5.000000	1713.771484	12972.307617
5.000000	1712.792969	13044.080078
5.000000	1711.814453	12825.956055
5.000000	1710.835938	12892.597656
5.000000	1709.856445	13038.699219
5.000000	1708.877930	13064.250000
5.000000	1707.898438	13210.254883
5.000000	1706.918945	13105.065430
5.000000	1705.939453	13212.569336
5.000000	1704.958984	13066.434570
5.000000	1703.979492	13294.267578
5.000000	1702.999023	13598.822266
5.000000	1702.018555	13457.814453
5.000000	1701.038086	13380.849609
5.000000	1700.056641	13467.686523
5.000000	1699.076172	13262.827148
5.000000	1698.094727	13661.713867
5.000000	1697.113281	13382.731445
5.000000	1696.131836	13525.743164
5.000000	1695.149414	13597.117188
5.000000	1694.167969	13645.458984
5.000000	1693.185547	13898.202148
5.000000	1692.203125	13877.481445
5.000000	1691.219727	13838.887695
5.000000	1690.237305	13925.441406
5.000000	1689.253906	13943.021484
5.000000	1688.270508	13771.695313
5.000000	1687.287109	13855.652344
5.000000	1686.303711	13959.987305
5.000000	1685.320313	14041.318359
5.000000	1684.335938	13844.600586
5.000000	1683.351563	13902.968750
5.000000	1682.367188	13997.004883
5.000000	1681.382813	13958.452148
5.000000	1680.397461	14016.757813
5.000000	1679.412109	14075.037109
5.000000	1678.426758	14095.079102
5.000000	1677.441406	14237.365234
5.000000	1676.456055	14295.559570
5.000000	1675.469727	14279.898438
5.000000	1674.483398	14500.960938
5.000000	1673.497070	14469.991211
5.000000	1672.510742	14624.769531
5.000000	1671.524414	14761.674805
5.000000	1670.537109	14812.052734
5.000000	1669.549805	14839.522461
5.000000	1668.562500	14963.584961
5.000000	1667.575195	15090.135742
5.000000	1666.587891	14993.009766
5.000000	1665.599609	15104.255859
5.000000	1664.611328	15281.499023
5.000000	1663.623047	15918.338867
5.000000	1662.634766	15414.860352
5.000000	1661.646484	15873.708008
5.000000	1660.657227	15743.537109
5.000000	1659.667969	15892.545898
5.000000	1658.678711	16191.174805
5.000000	1657.689453	16284.224609
5.000000	1656.699219	16478.673828
5.000000	1655.708984	16591.906250
5.000000	1654.718750	16641.716797
5.000000	1653.728516	16686.437500
5.000000	1652.738281	16766.611328
5.000000	1651.747070	16730.216797
5.000000	1650.756836	17114.285156
5.000000	1649.765625	17037.314453
5.000000	1648.773438	17324.949219
5.000000	1647.782227	17458.058594
5.000000	1646.790039	17297.544922
5.000000	1645.798828	17627.957031
5.000000	1644.806641	17900.046875
5.000000	1643.813477	18255.486328
5.000000	1642.821289	18203.666016
5.000000	1641.828125	18346.529297
5.000000	1640.834961	18355.371094
5.000000	1639.841797	18611.859375
5.000000	1638.848633	18853.080078
5.000000	1637.854492	19313.962891
5.000000	1636.861328	19423.609375
5.000000	1635.867188	19545.832031
5.000000	1634.873047	19986.083984
5.000000	1633.877930	20289.861328
5.000000	1632.883789	20515.283203
5.000000	1631.888672	20803.681641
5.000000	1630.893555	20920.437500
5.000000	1629.898438	21596.992188
5.000000	1628.902344	21748.830078
5.000000	1627.907227	22525.759766
5.000000	1626.911133	23032.693359
5.000000	1625.915039	23927.457031
5.000000	1624.918945	24494.347656
5.000000	1623.921875	25516.884766
5.000000	1622.924805	26637.201172
5.000000	1621.928711	27908.109375
5.000000	1620.930664	29377.339844
5.000000	1619.933594	31147.947266
5.000000	1618.936523	32698.916016
5.000000	1617.938477	34231.628906
5.000000	1616.940430	35099.730469
5.000000	1615.942383	36181.203125
5.000000	1614.943359	37649.375000
5.000000	1613.945313	37684.257813
5.000000	1612.946289	38158.890625
5.000000	1611.947266	38030.339844
5.000000	1610.948242	37899.332031
5.000000	1609.948242	37512.210938
5.000000	1608.949219	37019.796875
5.000000	1607.949219	36617.953125
5.000000	1606.949219	36166.082031
5.000000	1605.948242	36477.207031
5.000000	1604.948242	36529.804688
5.000000	1603.947266	36903.425781
5.000000	1602.946289	37013.578125
5.000000	1601.945313	37963.585938
5.000000	1600.944336	39324.281250
5.000000	1599.942383	40544.062500
5.000000	1598.940430	42079.035156
5.000000	1597.938477	44334.824219
5.000000	1596.936523	46882.699219
5.000000	1595.934570	49444.527344
5.000000	1594.931641	52290.679688
5.000000	1593.928711	55483.550781
5.000000	1592.925781	58257.167969
5.000000	1591.922852	60569.265625
5.000000	1590.918945	61864.816406
5.000000	1589.915039	62769.679688
5.000000	1588.911133	62879.046875
5.000000	1587.907227	62365.898438
5.000000	1586.903320	62347.828125
5.000000	1585.898438	61817.507813
5.000000	1584.894531	61204.957031
5.000000	1583.889648	60415.324219
5.000000	1582.883789	59448.710938
5.000000	1581.878906	58527.437500
5.000000	1580.873047	58148.218750
5.000000	1579.867188	57045.414063
5.000000	1578.861328	55733.476563
5.000000	1577.855469	54529.351563
5.000000	1576.848633	53121.218750
5.000000	1575.842773	52055.285156
5.000000	1574.835938	50177.070313
5.000000	1573.828125	48528.949219
5.000000	1572.821289	46570.019531
5.000000	1571.813477	45087.777344
5.000000	1570.805664	43735.683594
5.000000	1569.797852	42082.816406
5.000000	1568.790039	40799.140625
5.000000	1567.782227	39754.980469
5.000000	1566.773438	38865.566406
5.000000	1565.764648	38180.562500
5.000000	1564.755859	37515.742188
5.000000	1563.747070	37022.824219
5.000000	1562.737305	36594.765625
5.000000	1561.727539	36611.914063
5.000000	1560.717773	36102.085938
5.000000	1559.708008	35756.492188
5.000000	1558.697266	35490.546875
5.000000	1557.687500	34755.214844
5.000000	1556.676758	34285.933594
5.000000	1555.666016	33687.730469
5.000000	1554.654297	33427.398438
5.000000	1553.643555	32817.210938
5.000000	1552.631836	32988.949219
5.000000	1551.620117	33108.507813
5.000000	1550.608398	32977.492188
5.000000	1549.596680	33595.460938
5.000000	1548.583984	32913.964844
5.000000	1547.571289	33668.019531
5.000000	1546.558594	33296.585938
5.000000	1545.545898	34000.675781
5.000000	1544.532227	34028.167969
5.000000	1543.518555	33899.605469
5.000000	1542.504883	33416.992188
5.000000	1541.491211	34598.265625
5.000000	1540.477539	33982.039063
5.000000	1539.462891	34219.835938
5.000000	1538.448242	34544.125000
5.000000	1537.433594	34779.222656
5.000000	1536.418945	35204.644531
5.000000	1535.404297	34952.398438
5.000000	1534.388672	35308.382813
5.000000	1533.373047	35592.535156
5.000000	1532.357422	35379.894531
5.000000	1531.340820	35278.511719
5.000000	1530.325195	35488.382813
5.000000	1529.308594	35495.667969
5.000000	1528.291992	35631.332031
5.000000	1527.275391	35604.019531
5.000000	1526.257813	35927.156250
5.000000	1525.240234	35754.214844
5.000000	1524.223633	36000.699219
5.000000	1523.205078	36071.972656
5.000000	1522.187500	35955.812500
5.000000	1521.168945	36354.937500
5.000000	1520.151367	36603.539063
5.000000	1519.132813	35895.921875
5.000000	1518.113281	35632.066406
5.000000	1517.094727	35240.238281
5.000000	1516.075195	35444.523438
5.000000	1515.055664	35722.585938
5.000000	1514.036133	35431.902344
5.000000	1513.016602	35781.210938
5.000000	1511.996094	36051.628906
5.000000	1510.975586	36484.292969
5.000000	1509.955078	37029.902344
5.000000	1508.934570	37656.421875
5.000000	1507.914063	38324.464844
5.000000	1506.892578	38286.804688
5.000000	1505.871094	38391.679688
5.000000	1504.849609	38761.851563
5.000000	1503.827148	38829.730469
5.000000	1502.805664	39494.339844
5.000000	1501.783203	39372.968750
5.000000	1500.760742	39897.250000
5.000000	1499.738281	39878.917969
5.000000	1498.714844	39556.328125
5.000000	1497.691406	40016.441406
5.000000	1496.668945	39419.253906
5.000000	1495.644531	38952.281250
5.000000	1494.621094	39270.027344
5.000000	1493.596680	38430.714844
5.000000	1492.573242	38209.300781
5.000000	1491.547852	38218.281250
5.000000	1490.523438	37759.398438
5.000000	1489.499023	37535.808594
5.000000	1488.473633	37307.417969
5.000000	1487.448242	37571.160156
5.000000	1486.422852	37580.250000
5.000000	1485.396484	37914.773438
5.000000	1484.371094	37608.199219
5.000000	1483.344727	37754.234375
5.000000	1482.318359	37853.746094
5.000000	1481.291992	37818.746094
5.000000	1480.264648	38265.277344
5.000000	1479.237305	38352.386719
5.000000	1478.209961	38546.957031
5.000000	1477.182617	39115.171875
5.000000	1476.155273	39578.128906
5.000000	1475.126953	40272.843750
5.000000	1474.098633	40457.054688
5.000000	1473.070313	40746.128906
5.000000	1472.041992	41445.015625
5.000000	1471.012695	41555.660156
5.000000	1469.983398	41490.640625
5.000000	1468.954102	41564.644531
5.000000	1467.924805	41650.800781
5.000000	1466.895508	41378.609375
5.000000	1465.865234	41204.007813
5.000000	1464.834961	41368.140625
5.000000	1463.804688	41673.484375
5.000000	1462.773438	41766.812500
5.000000	1461.743164	41857.664063
5.000000	1460.711914	42092.097656
5.000000	1459.680664	42640.386719
5.000000	1458.649414	42896.441406
5.000000	1457.617188	43519.734375
5.000000	1456.584961	44257.066406
5.000000	1455.552734	44867.628906
5.000000	1454.520508	45339.347656
5.000000	1453.488281	46610.550781
5.000000	1452.455078	47655.199219
5.000000	1451.421875	49022.531250
5.000000	1450.388672	50432.996094
5.000000	1449.355469	51034.128906
5.000000	1448.321289	53082.121094
5.000000	1447.288086	53638.722656
5.000000	1446.253906	54576.121094
5.000000	1445.218750	55005.972656
5.000000	1444.184570	55918.398438
5.000000	1443.149414	55396.996094
5.000000	1442.114258	55006.757813
5.000000	1441.079102	54446.976563
5.000000	1440.043945	53535.968750
5.000000	1439.007813	52695.628906
5.000000	1437.971680	51831.421875
5.000000	1436.935547	50730.191406
5.000000	1435.899414	49692.402344
5.000000	1434.862305	48797.914063
5.000000	1433.826172	47816.656250
5.000000	1432.789063	46194.464844
5.000000	1431.750977	45194.832031
5.000000	1430.713867	44773.804688
5.000000	1429.675781	43687.828125
5.000000	1428.637695	42945.695313
5.000000	1427.599609	42653.546875
5.000000	1426.561523	42388.109375
5.000000	1425.522461	41943.960938
5.000000	1424.483398	41422.683594
5.000000	1423.444336	41556.234375
5.000000	1422.405273	41539.992188
5.000000	1421.365234	41644.476563
5.000000	1420.326172	41789.949219
5.000000	1419.286133	42072.917969
5.000000	1418.245117	42543.964844
5.000000	1417.205078	42993.093750
5.000000	1416.164063	43695.269531
5.000000	1415.123047	44028.203125
5.000000	1414.082031	44703.324219
5.000000	1413.041016	44828.605469
5.000000	1411.999023	45655.062500
5.000000	1410.957031	45741.527344
5.000000	1409.915039	45724.375000
5.000000	1408.873047	46017.882813
5.000000	1407.831055	45548.035156
5.000000	1406.788086	45140.968750
5.000000	1405.745117	45152.828125
5.000000	1404.702148	44541.500000
5.000000	1403.658203	43940.054688
5.000000	1402.614258	43665.953125
5.000000	1401.571289	43817.570313
5.000000	1400.526367	44423.468750
5.000000	1399.482422	44279.218750
5.000000	1398.437500	44901.566406
5.000000	1397.393555	45670.191406
5.000000	1396.347656	46416.859375
5.000000	1395.302734	47448.964844
5.000000	1394.257813	47513.066406
5.000000	1393.211914	47802.769531
5.000000	1392.166016	48471.515625
5.000000	1391.120117	48837.652344
5.000000	1390.073242	49155.652344
5.000000	1389.026367	49432.738281
5.000000	1387.979492	49762.449219
5.000000	1386.932617	49559.832031
5.000000	1385.885742	49376.472656
5.000000	1384.837891	50096.542969
5.000000	1383.790039	49961.050781
5.000000	1382.742188	49459.160156
5.000000	1381.694336	49484.292969
5.000000	1380.645508	49262.824219
5.000000	1379.596680	49943.816406
5.000000	1378.547852	49923.347656
5.000000	1377.499023	50199.554688
5.000000	1376.450195	50635.902344
5.000000	1375.400391	50687.027344
5.000000	1374.350586	51706.457031
5.000000	1373.300781	52204.324219
5.000000	1372.250000	51688.656250
5.000000	1371.199219	52064.445313
5.000000	1370.148438	51766.410156
5.000000	1369.097656	51745.542969
5.000000	1368.046875	51961.078125
5.000000	1366.995117	51321.863281
5.000000	1365.943359	51415.660156
5.000000	1364.891602	50437.992188
5.000000	1363.839844	50503.300781
5.000000	1362.787109	49368.828125
5.000000	1361.735352	48179.996094
5.000000	1360.682617	47468.511719
5.000000	1359.628906	46714.429688
5.000000	1358.576172	45479.285156
5.000000	1357.522461	44046.921875
5.000000	1356.468750	43239.285156
5.000000	1355.415039	42220.039063
5.000000	1354.360352	41070.281250
5.000000	1353.306641	39540.140625
5.000000	1352.251953	39369.636719
5.000000	1351.196289	38475.851563
5.000000	1350.141602	37948.808594
5.000000	1349.085938	37716.917969
5.000000	1348.030273	37309.160156
5.000000	1346.974609	36884.937500
5.000000	1345.918945	36617.769531
5.000000	1344.862305	37127.773438
5.000000	1343.806641	36936.691406
5.000000	1342.749023	37299.128906
5.000000	1341.692383	37578.285156
5.000000	1340.635742	37878.687500
5.000000	1339.578125	38456.679688
5.000000	1338.520508	39250.375000
5.000000	1337.462891	39239.378906
5.000000	1336.404297	39304.292969
5.000000	1335.345703	39141.500000
5.000000	1334.287109	38725.066406
5.000000	1333.228516	38363.332031
5.000000	1332.169922	38101.300781
5.000000	1331.110352	37900.988281
5.000000	1330.050781	37800.257813
5.000000	1328.991211	37481.667969
5.000000	1327.930664	37899.660156
5.000000	1326.871094	36984.578125
5.000000	1325.810547	36903.062500
5.000000	1324.750000	36947.000000
5.000000	1323.688477	36550.855469
5.000000	1322.627930	35920.710938
5.000000	1321.566406	36149.285156
5.000000	1320.504883	35893.066406
5.000000	1319.443359	35521.128906
5.000000	1318.380859	35180.074219
5.000000	1317.318359	35611.796875
5.000000	1316.255859	35225.984375
5.000000	1315.193359	35355.195313
5.000000	1314.129883	35203.367188
5.000000	1313.067383	35226.289063
5.000000	1312.003906	35178.394531
5.000000	1310.939453	35114.000000
5.000000	1309.875977	35264.312500
5.000000	1308.811523	35230.582031
5.000000	1307.747070	35477.480469
5.000000	1306.682617	35446.070313
5.000000	1305.617188	36081.714844
5.000000	1304.552734	36189.214844
5.000000	1303.487305	36317.867188
5.000000	1302.421875	36764.453125
5.000000	1301.355469	36692.742188
5.000000	1300.290039	37292.078125
5.000000	1299.223633	37199.089844
5.000000	1298.157227	37696.847656
5.000000	1297.089844	37429.691406
5.000000	1296.023438	37484.925781
5.000000	1294.956055	36999.207031
5.000000	1293.888672	36722.968750
5.000000	1292.820313	36536.179688
5.000000	1291.752930	36452.882813
5.000000	1290.684570	36379.019531
5.000000	1289.616211	36563.601563
5.000000	1288.546875	35832.093750
5.000000	1287.478516	35572.898438
5.000000	1286.409180	35187.039063
5.000000	1285.339844	34554.898438
5.000000	1284.270508	34411.132813
5.000000	1283.200195	34180.625000
5.000000	1282.129883	33964.285156
5.000000	1281.059570	33687.070313
5.000000	1279.989258	33058.289063
5.000000	1278.918945	33076.738281
5.000000	1277.847656	32762.398438
5.000000	1276.776367	32731.697266
5.000000	1275.705078	32419.910156
5.000000	1274.632813	32417.394531
5.000000	1273.561523	32035.566406
5.000000	1272.489258	31902.042969
5.000000	1271.416016	31698.361328
5.000000	1270.343750	31288.859375
5.000000	1269.270508	31052.650391
5.000000	1268.197266	31534.566406
5.000000	1267.124023	30709.144531
5.000000	1266.050781	30410.091797
5.000000	1264.976563	30618.357422
5.000000	1263.902344	30326.462891
5.000000	1262.828125	30296.355469
5.000000	1261.753906	30312.970703
5.000000	1260.678711	30626.148438
5.000000	1259.603516	30402.205078
5.000000	1258.528320	30285.732422
5.000000	1257.452148	30986.082031
5.000000	1256.376953	31375.810547
5.000000	1255.300781	31161.220703
5.000000	1254.224609	31312.859375
5.000000	1253.147461	31599.660156
5.000000	1252.071289	32047.169922
5.000000	1250.994141	32559.732422
5.000000	1249.916992	32706.253906
5.000000	1248.839844	32857.367188
5.000000	1247.761719	32661.392578
5.000000	1246.683594	32777.511719
5.000000	1245.605469	33089.125000
5.000000	1244.527344	32453.341797
5.000000	1243.448242	33144.164063
5.000000	1242.369141	32794.789063
5.000000	1241.290039	32715.367188
5.000000	1240.210938	32212.765625
5.000000	1239.130859	32047.484375
5.000000	1238.050781	31603.357422
5.000000	1236.970703	31168.722656
5.000000	1235.890625	31105.998047
5.000000	1234.810547	30794.767578
5.000000	1233.729492	30495.285156
5.000000	1232.648438	30825.111328
5.000000	1231.566406	31085.152344
5.000000	1230.485352	31386.845703
5.000000	1229.403320	31180.291016
5.000000	1228.321289	31521.255859
5.000000	1227.239258	31226.632813
5.000000	1226.156250	31444.544922
5.000000	1225.073242	31444.458984
5.000000	1223.990234	31444.369141
5.000000	1222.907227	31608.785156
5.000000	1221.823242	31532.208984
5.000000	1220.740234	31888.753906
5.000000	1219.656250	32080.736328
5.000000	1218.571289	32193.921875
5.000000	1217.487305	32147.359375
5.000000	1216.402344	32211.882813
5.000000	1215.317383	32109.808594
5.000000	1214.232422	32049.410156
5.000000	1213.146484	31801.734375
5.000000	1212.060547	31866.265625
5.000000	1210.974609	31627.982422
5.000000	1209.888672	31311.234375
5.000000	1208.802734	31331.927734
5.000000	1207.715820	31313.343750
5.000000	1206.628906	31657.312500
5.000000	1205.541992	31483.972656
5.000000	1204.454102	31940.845703
5.000000	1203.366211	32778.277344
5.000000	1202.278320	33331.550781
5.000000	1201.190430	33826.906250
5.000000	1200.101563	34679.480469
5.000000	1199.013672	35524.753906
5.000000	1197.924805	36362.730469
5.000000	1196.834961	37089.703125
5.000000	1195.746094	37588.250000
5.000000	1194.656250	38261.632813
5.000000	1193.566406	39008.406250
5.000000	1192.476563	39738.722656
5.000000	1191.385742	40777.171875
5.000000	1190.294922	42261.628906
5.000000	1189.204102	43043.628906
5.000000	1188.113281	44524.601563
5.000000	1187.021484	46158.996094
5.000000	1185.930664	48109.960938
5.000000	1184.838867	49002.566406
5.000000	1183.746094	50733.660156
5.000000	1182.654297	52020.488281
5.000000	1181.561523	52307.402344
5.000000	1180.468750	53584.097656
5.000000	1179.375977	54899.246094
5.000000	1178.282227	55685.777344
5.000000	1177.188477	57128.378906
5.000000	1176.094727	58441.824219
5.000000	1175.000977	59649.136719
5.000000	1173.906250	60771.031250
5.000000	1172.811523	61864.898438
5.000000	1171.716797	62451.585938
5.000000	1170.622070	62304.527344
5.000000	1169.526367	61078.179688
5.000000	1168.431641	59756.156250
5.000000	1167.334961	57523.078125
5.000000	1166.239258	55767.335938
5.000000	1165.143555	53991.773438
5.000000	1164.046875	52642.769531
5.000000	1162.950195	50891.593750
5.000000	1161.852539	49726.929688
5.000000	1160.755859	47805.640625
5.000000	1159.658203	46283.144531
5.000000	1158.560547	44274.324219
5.000000	1157.461914	41873.234375
5.000000	1156.364258	39672.054688
5.000000	1155.265625	38422.378906
5.000000	1154.166992	36542.781250
5.000000	1153.067383	35187.031250
5.000000	1151.967773	34309.109375
5.000000	1150.869141	33248.953125
5.000000	1149.768555	32522.492188
5.000000	1148.668945	31951.515625
5.000000	1147.568359	31805.105469
5.000000	1146.467773	31127.351563
5.000000	1145.367188	31056.435547
5.000000	1144.266602	31188.443359
5.000000	1143.165039	30935.207031
5.000000	1142.063477	30397.250000
5.000000	1140.961914	30349.335938
5.000000	1139.859375	30224.000000
5.000000	1138.757813	29668.345703
5.000000	1137.655273	29627.451172
5.000000	1136.551758	29181.431641
5.000000	1135.449219	29147.484375
5.000000	1134.345703	29049.851563
5.000000	1133.242188	28829.435547
5.000000	1132.138672	29457.316406
5.000000	1131.034180	29373.310547
5.000000	1129.929688	29484.814453
5.000000	1128.825195	29853.050781
5.000000	1127.720703	30280.185547
5.000000	1126.616211	29909.861328
5.000000	1125.510742	30386.742188
5.000000	1124.405273	30434.302734
5.000000	1123.298828	30127.742188
5.000000	1122.193359	29655.658203
5.000000	1121.086914	29340.333984
5.000000	1119.980469	28991.126953
5.000000	1118.873047	28213.464844
5.000000	1117.766602	27814.787109
5.000000	1116.659180	27368.687500
5.000000	1115.551758	26859.335938
5.000000	1114.443359	26545.064453
5.000000	1113.335938	26461.982422
5.000000	1112.227539	26132.087891
5.000000	1111.118164	25901.962891
5.000000	1110.009766	25678.732422
5.000000	1108.900391	25702.281250
5.000000	1107.791016	25363.800781
5.000000	1106.681641	25100.119141
5.000000	1105.572266	24761.925781
5.000000	1104.461914	24699.732422
5.000000	1103.351563	24368.562500
5.000000	1102.241211	24204.783203
5.000000	1101.129883	24099.822266
5.000000	1100.018555	23972.316406
5.000000	1098.907227	23804.214844
5.000000	1097.795898	23451.037109
5.000000	1096.683594	23084.472656
5.000000	1095.572266	23271.019531
5.000000	1094.458984	23067.121094
5.000000	1093.346680	22709.914063
5.000000	1092.234375	22959.558594
5.000000	1091.121094	23182.031250
5.000000	1090.006836	23327.750000
5.000000	1088.893555	23369.724609
5.000000	1087.779297	23449.984375
5.000000	1086.666016	23850.099609
5.000000	1085.550781	24112.638672
5.000000	1084.436523	24516.916016
5.000000	1083.321289	24986.289063
5.000000	1082.206055	25259.632813
5.000000	1081.090820	25755.617188
5.000000	1079.974609	26370.603516
5.000000	1078.859375	26825.613281
5.000000	1077.743164	26886.902344
5.000000	1076.625977	27471.970703
5.000000	1075.509766	27377.990234
5.000000	1074.392578	27293.041016
5.000000	1073.275391	27050.867188
5.000000	1072.158203	26658.318359
5.000000	1071.040039	26301.875000
5.000000	1069.921875	26019.677734
5.000000	1068.803711	25706.185547
5.000000	1067.685547	26110.908203
5.000000	1066.566406	25597.867188
5.000000	1065.447266	25293.652344
5.000000	1064.328125	25308.000000
5.000000	1063.208008	25559.980469
5.000000	1062.088867	25668.392578
5.000000	1060.968750	25480.957031
5.000000	1059.847656	25300.326172
5.000000	1058.727539	25511.748047
5.000000	1057.606445	25875.343750
5.000000	1056.485352	26129.066406
5.000000	1055.364258	25988.732422
5.000000	1054.242188	25944.683594
5.000000	1053.120117	26023.701172
5.000000	1051.998047	25134.173828
5.000000	1050.875977	24562.597656
5.000000	1049.752930	23957.748047
5.000000	1048.629883	23692.921875
5.000000	1047.506836	23213.689453
5.000000	1046.383789	22924.578125
5.000000	1045.259766	22519.451172
5.000000	1044.135742	22192.666016
5.000000	1043.011719	21607.050781
5.000000	1041.886719	21869.892578
5.000000	1040.762695	21648.363281
5.000000	1039.637695	21703.582031
5.000000	1038.511719	21662.861328
5.000000	1037.386719	21646.687500
5.000000	1036.260742	21374.126953
5.000000	1035.134766	21268.863281
5.000000	1034.007813	21493.457031
5.000000	1032.881836	21885.041016
5.000000	1031.754883	21819.818359
5.000000	1030.627930	21803.615234
5.000000	1029.500000	22096.886719
5.000000	1028.372070	22231.980469
5.000000	1027.245117	22135.574219
5.000000	1026.116211	22731.132813
5.000000	1024.988281	22710.277344
5.000000	1023.859375	22504.851563
5.000000	1022.730469	22552.974609
5.000000	1021.601563	22198.753906
5.000000	1020.471680	21949.138672
5.000000	1019.341797	21704.082031
5.000000	1018.211914	21279.218750
5.000000	1017.082031	21307.572266
5.000000	1015.951172	21204.919922
5.000000	1014.820313	20926.958984
5.000000	1013.689453	21132.900391
5.000000	1012.557617	21562.822266
5.000000	1011.426758	21127.480469
5.000000	1010.293945	20982.843750
5.000000	1009.162109	20966.863281
5.000000	1008.030273	20862.224609
5.000000	1006.897461	20888.378906
5.000000	1005.764648	21071.820313
5.000000	1004.630859	21082.404297
5.000000	1003.498047	21157.201172
5.000000	1002.364258	21132.332031
5.000000	1001.230469	21125.177734
5.000000	1000.095703	21396.855469
5.000000	998.960938	21442.738281
5.000000	997.826172	21813.746094
5.000000	996.691406	21793.162109
5.000000	995.556641	21900.816406
5.000000	994.420898	22368.703125
5.000000	993.285156	21848.576172
5.000000	992.148438	21909.738281
5.000000	991.012695	21880.308594
5.000000	989.875977	22038.593750
5.000000	988.739258	22134.986328
5.000000	987.601563	22332.863281
5.000000	986.463867	22426.927734
5.000000	985.326172	22194.429688
5.000000	984.188477	22109.816406
5.000000	983.049805	22386.890625
5.000000	981.912109	22297.857422
5.000000	980.773438	22621.039063
5.000000	979.633789	22238.908203
5.000000	978.495117	22606.007813
5.000000	977.355469	22613.912109
5.000000	976.214844	22648.232422
5.000000	975.075195	22700.148438
5.000000	973.934570	22749.835938
5.000000	972.793945	22729.082031
5.000000	971.653320	22882.134766
5.000000	970.511719	22841.556641
5.000000	969.370117	23188.013672
5.000000	968.228516	23101.210938
5.000000	967.086914	23638.658203
5.000000	965.944336	23613.312500
5.000000	964.801758	23765.923828
5.000000	963.659180	23744.947266
5.000000	962.516602	23774.482422
5.000000	961.373047	23465.919922
5.000000	960.229492	23355.033203
5.000000	959.084961	23270.527344
5.000000	957.941406	23337.429688
5.000000	956.796875	22965.644531
5.000000	955.652344	23322.025391
5.000000	954.506836	23375.707031
5.000000	953.362305	23661.679688
5.000000	952.216797	23474.218750
5.000000	951.070313	23475.242188
5.000000	949.924805	23399.607422
5.000000	948.778320	23052.488281
5.000000	947.631836	23145.544922
5.000000	946.485352	23380.814453
5.000000	945.337891	23832.587891
5.000000	944.190430	23855.382813
5.000000	943.042969	24346.193359
5.000000	941.894531	25114.457031
5.000000	940.747070	24937.996094
5.000000	939.597656	24794.398438
5.000000	938.449219	24696.751953
5.000000	937.300781	24579.486328
5.000000	936.151367	24235.146484
5.000000	935.001953	24137.691406
5.000000	933.851563	23474.908203
5.000000	932.701172	23416.958984
5.000000	931.550781	23112.482422
5.000000	930.400391	22795.058594
5.000000	929.250000	22366.562500
5.000000	928.098633	22808.208984
5.000000	926.947266	22543.390625
5.000000	925.794922	22725.447266
5.000000	924.642578	23480.425781
5.000000	923.490234	24317.816406
5.000000	922.337891	25808.119141
5.000000	921.185547	27238.925781
5.000000	920.032227	28716.933594
5.000000	918.878906	29258.484375
5.000000	917.724609	29664.884766
5.000000	916.571289	29668.689453
5.000000	915.416992	30046.521484
5.000000	914.262695	29832.818359
5.000000	913.107422	30010.453125
5.000000	911.952148	29849.005859
5.000000	910.796875	28951.144531
5.000000	909.641602	28153.619141
5.000000	908.485352	27280.468750
5.000000	907.329102	26079.916016
5.000000	906.172852	25470.296875
5.000000	905.016602	25362.222656
5.000000	903.859375	24948.306641
5.000000	902.702148	24454.337891
5.000000	901.544922	23832.667969
5.000000	900.386719	23332.691406
5.000000	899.228516	22947.822266
5.000000	898.070313	22244.609375
5.000000	896.911133	21524.400391
5.000000	895.752930	21138.066406
5.000000	894.593750	20955.447266
5.000000	893.433594	20902.800781
5.000000	892.274414	20908.609375
5.000000	891.114258	20685.058594
5.000000	889.954102	20876.945313
5.000000	888.792969	21099.015625
5.000000	887.632813	20964.220703
5.000000	886.470703	21140.763672
5.000000	885.309570	21258.869141
5.000000	884.148438	20985.845703
5.000000	882.986328	21103.925781
5.000000	881.824219	21392.550781
5.000000	880.661133	20867.078125
5.000000	879.498047	20957.033203
5.000000	878.334961	20820.351563
5.000000	877.171875	20386.001953
5.000000	876.007813	20642.083984
5.000000	874.843750	20190.730469
5.000000	873.679688	20418.705078
5.000000	872.515625	20344.810547
5.000000	871.350586	20199.837891
5.000000	870.185547	20289.757813
5.000000	869.020508	20192.248047
5.000000	867.854492	19969.890625
5.000000	866.688477	20479.589844
5.000000	865.522461	20418.685547
5.000000	864.356445	20433.119141
5.000000	863.189453	20533.593750
5.000000	862.022461	20595.302734
5.000000	860.854492	20762.339844
5.000000	859.687500	21077.621094
5.000000	858.519531	21199.324219
5.000000	857.351563	21409.058594
5.000000	856.182617	21380.246094
5.000000	855.013672	21823.917969
5.000000	853.844727	22052.664063
5.000000	852.675781	21824.078125
5.000000	851.505859	22050.562500
5.000000	850.335938	22397.082031
5.000000	849.166016	22443.130859
5.000000	847.995117	22639.267578
5.000000	846.825195	22470.832031
5.000000	845.653320	22561.832031
5.000000	844.482422	22414.921875
5.000000	843.310547	22407.333984
5.000000	842.138672	22138.439453
5.000000	840.966797	22225.136719
5.000000	839.793945	21872.917969
5.000000	838.622070	21792.687500
5.000000	837.448242	21937.171875
5.000000	836.275391	22079.443359
5.000000	835.101563	22435.517578
5.000000	833.927734	22209.816406
5.000000	832.753906	21964.982422
5.000000	831.579102	22201.132813
5.000000	830.404297	22458.531250
5.000000	829.229492	22438.103516
5.000000	828.054688	22477.478516
5.000000	826.878906	22407.941406
5.000000	825.703125	22543.355469
5.000000	824.526367	22702.173828
5.000000	823.350586	22508.878906
5.000000	822.173828	22631.359375
5.000000	820.996094	22551.191406
5.000000	819.819336	22245.070313
5.000000	818.641602	22414.410156
5.000000	817.463867	22078.630859
5.000000	816.285156	22416.226563
5.000000	815.107422	22470.375000
5.000000	813.928711	22452.097656
5.000000	812.749023	22672.255859
5.000000	811.570313	22909.330078
5.000000	810.390625	23239.908203
5.000000	809.209961	23257.609375
5.000000	808.030273	23647.484375
5.000000	806.849609	24043.541016
5.000000	805.668945	24416.017578
5.000000	804.488281	24452.527344
5.000000	803.306641	24270.173828
5.000000	802.125000	24124.017578
5.000000	800.943359	24413.273438
5.000000	799.760742	24086.681641
5.000000	798.578125	23980.996094
5.000000	797.395508	24051.490234
5.000000	796.211914	23633.992188
5.000000	795.029297	23530.607422
5.000000	793.844727	23429.390625
5.000000	792.661133	22870.304688
5.000000	791.476563	22591.257813
5.000000	790.291992	22570.857422
5.000000	789.107422	22808.908203
5.000000	787.922852	22724.919922
5.000000	786.737305	22702.373047
5.000000	785.550781	22736.988281
5.000000	784.365234	22405.460938
5.000000	783.178711	21974.650391
5.000000	781.992188	21514.435547
5.000000	780.805664	21018.496094
5.000000	779.618164	20723.648438
5.000000	778.430664	20354.964844
5.000000	777.243164	19988.574219
5.000000	776.054688	20127.287109
5.000000	774.866211	20246.919922
5.000000	773.677734	19986.398438
5.000000	772.489258	20393.107422
5.000000	771.299805	20379.609375
5.000000	770.110352	20608.771484
5.000000	768.919922	20626.863281
5.000000	767.730469	21009.798828
5.000000	766.540039	20913.919922
5.000000	765.348633	21283.939453
5.000000	764.158203	21803.400391
5.000000	762.966797	22432.160156
5.000000	761.774414	23665.130859
5.000000	760.583008	24625.832031
5.000000	759.390625	24284.958984
5.000000	758.198242	23226.513672
5.000000	757.005859	22208.572266
5.000000	755.812500	21980.042969
5.000000	754.619141	21951.431641
5.000000	753.424805	21908.111328
5.000000	752.231445	21934.181641
5.000000	751.037109	22285.992188
5.000000	749.842773	22227.904297
5.000000	748.647461	22526.945313
5.000000	747.452148	22225.208984
5.000000	746.256836	22656.365234
5.000000	745.060547	23175.462891
5.000000	743.865234	23085.730469
5.000000	742.668945	22150.548828
5.000000	741.471680	21691.957031
5.000000	740.274414	21659.267578
5.000000	739.077148	21704.160156
5.000000	737.879883	21843.341797
5.000000	736.681641	22694.873047
5.000000	735.484375	23577.396484
5.000000	734.285156	24453.191406
5.000000	733.086914	25380.886719
5.000000	731.887695	25776.425781
5.000000	730.688477	25841.109375
5.000000	729.488281	25947.601563
5.000000	728.288086	25752.832031
5.000000	727.087891	25066.734375
5.000000	725.887695	24700.843750
5.000000	724.686523	24826.310547
5.000000	723.485352	24797.080078
5.000000	722.284180	24744.880859
5.000000	721.082031	24732.386719
5.000000	719.879883	24168.660156
5.000000	718.677734	22997.757813
5.000000	717.474609	21835.789063
5.000000	716.272461	21122.986328
5.000000	715.068359	20600.355469
5.000000	713.865234	20134.289063
5.000000	712.661133	19739.341797
5.000000	711.457031	19507.166016
5.000000	710.251953	19402.214844
5.000000	709.047852	19424.394531
5.000000	707.842773	19246.617188
5.000000	706.636719	19366.683594
5.000000	705.431641	19303.496094
5.000000	704.225586	19406.830078
5.000000	703.018555	19133.515625
5.000000	701.812500	18933.138672
5.000000	700.605469	18876.351563
5.000000	699.397461	18965.123047
5.000000	698.190430	18922.900391
5.000000	696.982422	18743.548828
5.000000	695.774414	19106.503906
5.000000	694.565430	19276.117188
5.000000	693.356445	19375.041016
5.000000	692.147461	19359.740234
5.000000	690.938477	19549.902344
5.000000	689.728516	19605.101563
5.000000	688.518555	19571.074219
5.000000	687.308594	19476.919922
5.000000	686.097656	19391.105469
5.000000	684.886719	19452.494141
5.000000	683.674805	19118.058594
5.000000	682.463867	19082.109375
5.000000	681.251953	19143.521484
5.000000	680.040039	19233.884766
5.000000	678.827148	19274.517578
5.000000	677.614258	19567.613281
5.000000	676.401367	19297.779297
5.000000	675.187500	19299.054688
5.000000	673.973633	19511.257813
5.000000	672.759766	19849.462891
5.000000	671.545898	19561.218750
5.000000	670.331055	19924.027344
5.000000	669.116211	19695.814453
5.000000	667.900391	20221.558594
5.000000	666.684570	20315.486328
5.000000	665.468750	20399.041016
5.000000	664.252930	20274.113281
5.000000	663.036133	20508.244141
5.000000	661.819336	20672.119141
5.000000	660.602539	20771.980469
5.000000	659.384766	20861.480469
5.000000	658.166992	21144.669922
5.000000	656.948242	20840.455078
5.000000	655.730469	21249.160156
5.000000	654.511719	21422.867188
5.000000	653.291992	21654.134766
5.000000	652.073242	21794.707031
5.000000	650.853516	22130.705078
5.000000	649.633789	22579.679688
5.000000	648.413086	22732.236328
5.000000	647.192383	22909.384766
5.000000	645.971680	22901.416016
5.000000	644.750000	22702.310547
5.000000	643.528320	22782.746094
5.000000	642.306641	22626.902344
5.000000	641.084961	22799.722656
5.000000	639.862305	22734.285156
5.000000	638.639648	22859.771484
5.000000	637.416016	23003.654297
5.000000	636.192383	22726.896484
5.000000	634.968750	22649.224609
5.000000	633.745117	22479.316406
5.000000	632.520508	22139.349609
5.000000	631.295898	22250.423828
5.000000	630.070313	21828.726563
5.000000	628.844727	21806.673828
5.000000	627.619141	21766.197266
5.000000	626.393555	21379.748047
5.000000	625.166992	21617.753906
5.000000	623.940430	21822.892578
5.000000	622.712891	22138.388672
5.000000	621.486328	21807.447266
5.000000	620.258789	21830.394531
5.000000	619.030273	21982.101563
5.000000	617.802734	21447.093750
5.000000	616.573242	21177.951172
5.000000	615.344727	21425.697266
5.000000	614.115234	21322.091797
10.000000	1722.566406	12219.671875
10.000000	1721.590820	12558.964844
10.000000	1720.613281	12515.303711
10.000000	1719.636719	12489.644531
10.000000	1718.659180	12417.754883
10.000000	1717.682617	12774.802734
10.000000	1716.705078	12862.085938
10.000000	1715.727539	12458.982422
10.000000	1714.749023	12630.995117
10.000000	1713.771484	12641.263672
10.000000	1712.792969	12446.269531
10.000000	1711.814453	12464.263672
10.000000	1710.835938	12795.139648
10.000000	1709.856445	12638.691406
10.000000	1708.877930	12787.377930
10.000000	1707.898438	12782.215820
10.000000	1706.918945	12602.798828
10.000000	1705.939453	12700.156250
10.000000	1704.958984	12871.757813
10.000000	1703.979492	12735.964844
10.000000	1702.999023	12774.340820
10.000000	1702.018555	12848.539063
10.000000	1701.038086	13027.644531
10.000000	1700.056641	13152.937500
10.000000	1699.076172	13160.491211
10.000000	1698.094727	13388.018555
10.000000	1697.113281	13126.994141
10.000000	1696.131836	13239.375977
10.000000	1695.149414	13351.709961
10.000000	1694.167969	13366.875977
10.000000	1693.185547	13389.700195
10.000000	1692.203125	13402.294922
10.000000	1691.219727	13409.775391
10.000000	1690.237305	13578.134766
10.000000	1689.253906	13588.126953
10.000000	1688.270508	13626.192383
10.000000	1687.287109	13531.528320
10.000000	1686.303711	13625.723633
10.000000	1685.320313	13770.900391
10.000000	1684.335938	13770.633789
10.000000	1683.351563	13660.711914
10.000000	1682.367188	13576.330078
10.000000	1681.382813	13695.903320
10.000000	1680.397461	13598.802734
10.000000	1679.412109	13843.170898
10.000000	1678.426758	13970.253906
10.000000	1677.441406	14053.986328
10.000000	1676.456055	13870.308594
10.000000	1675.469727	14022.762695
10.000000	1674.483398	14236.242188
10.000000	1673.497070	14365.652344
10.000000	1672.510742	14507.730469
10.000000	1671.524414	14507.294922
10.000000	1670.537109	14829.855469
10.000000	1669.549805	14875.121094
10.000000	1668.562500	15044.936523
10.000000	1667.575195	15059.635742
10.000000	1666.587891	15079.410156
10.000000	1665.599609	15546.332031
10.000000	1664.611328	15515.192383
10.000000	1663.623047	15237.720703
10.000000	1662.634766	15430.095703
10.000000	1661.646484	15701.084961
10.000000	1660.657227	15748.612305
10.000000	1659.667969	15808.807617
10.000000	1658.678711	16049.102539
10.000000	1657.689453	16334.954102
10.000000	1656.699219	16394.986328
10.000000	1655.708984	16262.298828
10.000000	1654.718750	16793.812500
10.000000	1653.728516	16346.828125
10.000000	1652.738281	16670.324219
10.000000	1651.747070	16385.681641
10.000000	1650.756836	16625.451172
10.000000	1649.765625	16763.826172
10.000000	1648.773438	17071.771484
10.000000	1647.782227	17070.775391
10.000000	1646.790039	17251.992188
10.000000	1645.798828	17526.748047
10.000000	1644.806641	17507.947266
10.000000	1643.813477	17676.308594
10.000000	1642.821289	17766.210938
10.000000	1641.828125	17666.466797
10.000000	1640.834961	17986.341797
10.000000	1639.841797	18326.300781
10.000000	1638.848633	18663.589844
10.000000	1637.854492	18818.863281
10.000000	1636.861328	18913.458984
10.000000	1635.867188	18977.712891
10.000000	1634.873047	19175.736328
10.000000	1633.877930	19590.732422
10.000000	1632.883789	20250.324219
10.000000	1631.888672	20601.851563
10.000000	1630.893555	20829.632813
10.000000	1629.898438	21180.888672
10.000000	1628.902344	21950.535156
10.000000	1627.907227	22336.699219
10.000000	1626.911133	23269.599609
10.000000	1625.915039	23803.990234
10.000000	1624.918945	24937.730469
10.000000	1623.921875	26108.777344
10.000000	1622.924805	26833.619141
10.000000	1621.928711	28298.343750
10.000000	1620.930664	29024.941406
10.000000	1619.933594	30991.917969
10.000000	1618.936523	32603.304688
10.000000	1617.938477	34005.226563
10.000000	1616.940430	35358.781250
10.000000	1615.942383	36427.625000
10.000000	1614.943359	37211.941406
10.000000	1613.945313	38438.296875
10.000000	1612.946289	39035.902344
10.000000	1611.947266	38975.007813
10.000000	1610.948242	38858.871094
10.000000	1609.948242	38692.550781
10.000000	1608.949219	38262.660156
10.000000	1607.949219	38257.187500
10.000000	1606.949219	38113.675781
10.000000	1605.948242	38017.898438
10.000000	1604.948242	38614.570313
10.000000	1603.947266	38556.339844
10.000000	1602.946289	39543.843750
10.000000	1601.945313	39914.164063
10.000000	1600.944336	41149.121094
10.000000	1599.942383	42526.406250
10.000000	1598.940430	43760.292969
10.000000	1597.938477	46451.613281
10.000000	1596.936523	48891.351563
10.000000	1595.934570	51948.554688
10.000000	1594.931641	54831.738281
10.000000	1593.928711	58642.312500
10.000000	1592.925781	61079.937500
10.000000	1591.922852	64512.308594
10.000000	1590.918945	66782.585938
10.000000	1589.915039	67603.890625
10.000000	1588.911133	68514.859375
10.000000	1587.907227	68288.007813
10.000000	1586.903320	68383.664063
10.000000	1585.898438	66987.500000
10.000000	1584.894531	65801.765625
10.000000	1583.889648	64721.425781
10.000000	1582.883789	63202.027344
10.000000	1581.878906	62397.312500
10.000000	1580.873047	61368.273438
10.000000	1579.867188	60616.679688
10.000000	1578.861328	58710.152344
10.000000	1577.855469	57712.457031
10.000000	1576.848633	55530.488281
10.000000	1575.842773	53992.769531
10.000000	1574.835938	52665.105469
10.000000	1573.828125	50856.941406
10.000000	1572.821289	49333.621094
10.000000	1571.813477	47427.250000
10.000000	1570.805664	45621.316406
10.000000	1569.797852	44598.121094
10.000000	1568.790039	42439.968750
10.000000	1567.782227	41109.191406
10.000000	1566.773438	40224.464844
10.000000	1565.764648	38991.750000
10.000000	1564.755859	38498.417969
10.000000	1563.747070	38000.316406
10.000000	1562.737305	37291.050781
10.000000	1561.727539	37559.160156
10.000000	1560.717773	36880.105469
10.000000	1559.708008	36074.589844
10.000000	1558.697266	35453.277344
10.000000	1557.687500	35264.457031
10.000000	1556.676758	34427.500000
10.000000	1555.666016	33752.289063
10.000000	1554.654297	34196.984375
10.000000	1553.643555	33512.175781
10.000000	1552.631836	33457.949219
10.000000	1551.620117	33349.164063
10.000000	1550.608398	33185.847656
10.000000	1549.596680	33335.070313
10.000000	1548.583984	33211.492188
10.000000	1547.571289	33226.781250
10.000000	1546.558594	33224.710938
10.000000	1545.545898	33557.148438
10.000000	1544.532227	33765.574219
10.000000	1543.518555	33840.160156
10.000000	1542.504883	34100.433594
10.000000	1541.491211	34194.722656
10.000000	1540.477539	34645.394531
10.000000	1539.462891	35058.753906
10.000000	1538.448242	35798.519531
10.000000	1537.433594	35736.515625
10.000000	1536.418945	36337.328125
10.000000	1535.404297	36836.507813
10.000000	1534.388672	37063.542969
10.000000	1533.373047	37549.992188
10.000000	1532.357422	37393.765625
10.000000	1531.340820	37837.933594
10.000000	1530.325195	37716.289063
10.000000	1529.308594	38029.312500
10.000000	1528.291992	38243.441406
10.000000	1527.275391	38837.609375
10.000000	1526.257813	39113.167969
10.000000	1525.240234	38606.457031
10.000000	1524.223633	38803.003906
10.000000	1523.205078	38698.574219
10.000000	1522.187500	38133.085938
10.000000	1521.168945	38083.070313
10.000000	1520.151367	37890.121094
10.000000	1519.132813	37574.039063
10.000000	1518.113281	37260.554688
10.000000	1517.094727	37420.121094
10.000000	1516.075195	37633.796875
10.000000	1515.055664	37780.898438
10.000000	1514.036133	37849.167969
10.000000	1513.016602	38530.203125
10.000000	1511.996094	38482.628906
10.000000	1510.975586	38654.015625
10.000000	1509.955078	39678.761719
10.000000	1508.934570	40135.046875
10.000000	1507.914063	40030.617188
10.000000	1506.892578	40226.089844
10.000000	1505.871094	40153.621094
10.000000	1504.849609	39894.460938
10.000000	1503.827148	39839.281250
10.000000	1502.805664	39904.457031
10.000000	1501.783203	40124.285156
10.000000	1500.760742	40307.195313
10.000000	1499.738281	40229.871094
10.000000	1498.714844	40444.570313
10.000000	1497.691406	40627.285156
10.000000	1496.668945	41011.035156
10.000000	1495.644531	41183.734375
10.000000	1494.621094	41474.031250
10.000000	1493.596680	40857.296875
10.000000	1492.573242	40966.191406
10.000000	1491.547852	40979.484375
10.000000	1490.523438	41487.570313
10.000000	1489.499023	42000.335938
10.000000	1488.473633	42135.812500
10.000000	1487.448242	42227.164063
10.000000	1486.422852	43111.437500
10.000000	1485.396484	43004.335938
10.000000	1484.371094	42882.593750
10.000000	1483.344727	42513.871094
10.000000	1482.318359	42184.429688
10.000000	1481.291992	41867.347656
10.000000	1480.264648	41831.492188
10.000000	1479.237305	41411.976563
10.000000	1478.209961	41574.125000
10.000000	1477.182617	41970.707031
10.000000	1476.155273	41666.203125
10.000000	1475.126953	42233.500000
10.000000	1474.098633	42058.445313
10.000000	1473.070313	42427.718750
10.000000	1472.041992	42604.062500
10.000000	1471.012695	42507.093750
10.000000	1469.983398	42883.339844
10.000000	1468.954102	42303.515625
10.000000	1467.924805	42496.789063
10.000000	1466.895508	42007.476563
10.000000	1465.865234	41350.222656
10.000000	1464.834961	40997.804688
10.000000	1463.804688	40950.019531
10.000000	1462.773438	40157.023438
10.000000	1461.743164	39992.558594
10.000000	1460.711914	39930.406250
10.000000	1459.680664	40537.574219
10.000000	1458.649414	40684.582031
10.000000	1457.617188	41481.078125
10.000000	1456.584961	41579.167969
10.000000	1455.552734	42212.195313
10.000000	1454.520508	42859.531250
10.000000	1453.488281	43355.882813
10.000000	1452.455078	44019.695313
10.000000	1451.421875	44430.539063
10.000000	1450.388672	44940.796875
10.000000	1449.355469	45169.113281
10.000000	1448.321289	45399.757813
10.000000	1447.288086	45700.695313
10.000000	1446.253906	46620.386719
10.000000	1445.218750	47377.105469
10.000000	1444.184570	47471.203125
10.000000	1443.149414	48375.355469
10.000000	1442.114258	48718.957031
10.000000	1441.079102	50281.871094
10.000000	1440.043945	51102.406250
10.000000	1439.007813	51949.238281
10.000000	1437.971680	52880.500000
10.000000	1436.935547	54244.949219
10.000000	1435.899414	55557.941406
10.000000	1434.862305	55744.484375
10.000000	1433.826172	55899.468750
10.000000	1432.789063	55979.359375
10.000000	1431.750977	55955.160156
10.000000	1430.713867	54595.589844
10.000000	1429.675781	53834.007813
10.000000	1428.637695	52777.742188
10.000000	1427.599609	51782.367188
10.000000	1426.561523	50828.507813
10.000000	1425.522461	50053.882813
10.000000	1424.483398	48506.460938
10.000000	1423.444336	47860.683594
10.000000	1422.405273	46710.453125
10.000000	1421.365234	46289.882813
10.000000	1420.326172	45642.578125
10.000000	1419.286133	45253.789063
10.000000	1418.245117	44756.582031
10.000000	1417.205078	44426.039063
10.000000	1416.164063	44698.593750
10.000000	1415.123047	44295.859375
10.000000	1414.082031	44833.503906
10.000000	1413.041016	45115.425781
10.000000	1411.999023	45151.425781
10.000000	1410.957031	45372.917969
10.000000	1409.915039	45736.421875
10.000000	1408.873047	46335.765625
10.000000	1407.831055	46653.148438
10.000000	1406.788086	46748.933594
10.000000	1405.745117	47600.347656
10.000000	1404.702148	47777.687500
10.000000	1403.658203	47661.464844
10.000000	1402.614258	47571.742188
10.000000	1401.571289	48314.019531
10.000000	1400.526367	48837.207031
10.000000	1399.482422	49062.132813
10.000000	1398.437500	49474.386719
10.000000	1397.393555	50472.648438
10.000000	1396.347656	50536.132813
10.000000	1395.302734	50813.304688
10.000000	1394.257813	50792.644531
10.000000	1393.211914	51004.824219
10.000000	1392.166016	51802.460938
10.000000	1391.120117	51915.949219
10.000000	1390.073242	51669.566406
10.000000	1389.026367	51488.039063
10.000000	1387.979492	51493.609375
10.000000	1386.932617	51849.164063
10.000000	1385.885742	51126.050781
10.000000	1384.837891	51035.835938
10.000000	1383.790039	51400.828125
10.000000	1382.742188	51483.031250
10.000000	1381.694336	51105.433594
10.000000	1380.645508	50450.285156
10.000000	1379.596680	50999.371094
10.000000	1378.547852	50344.519531
10.000000	1377.499023	50323.964844
10.000000	1376.450195	50592.847656
10.000000	1375.400391	51595.781250
10.000000	1374.350586	52112.917969
10.000000	1373.300781	52529.421875
10.000000	1372.250000	52993.539063
10.000000	1371.199219	53469.398438
10.000000	1370.148438	53856.652344
10.000000	1369.097656	54184.027344
10.000000	1368.046875	54456.335938
10.000000	1366.995117	54487.402344
10.000000	1365.943359	54776.222656
10.000000	1364.891602	54742.769531
10.000000	1363.839844	54721.253906
10.000000	1362.787109	53905.472656
10.000000	1361.735352	52684.648438
10.000000	1360.682617	51948.339844
10.000000	1359.628906	50599.750000
10.000000	1358.576172	49399.503906
10.000000	1357.522461	47909.097656
10.000000	1356.468750	46624.203125
10.000000	1355.415039	45458.941406
10.000000	1354.360352	44501.335938
10.000000	1353.306641	42884.746094
10.000000	1352.251953	42406.492188
10.000000	1351.196289	41852.304688
10.000000	1350.141602	41110.417969
10.000000	1349.085938	39886.031250
10.000000	1348.030273	40157.878906
10.000000	1346.974609	39766.312500
10.000000	1345.918945	39648.253906
10.000000	1344.862305	39499.351563
10.000000	1343.806641	40113.144531
10.000000	1342.749023	40797.925781
10.000000	1341.692383	40496.871094
10.000000	1340.635742	41240.617188
10.000000	1339.578125	41530.648438
10.000000	1338.520508	42140.933594
10.000000	1337.462891	42302.507813
10.000000	1336.404297	41721.523438
10.000000	1335.345703	41363.722656
10.000000	1334.287109	40754.742188
10.000000	1333.228516	39980.078125
10.000000	1332.169922	39395.359375
10.000000	1331.110352	38391.484375
10.000000	1330.050781	37861.855469
10.000000	1328.991211	37858.261719
10.000000	1327.930664	37494.734375
10.000000	1326.871094	36856.734375
10.000000	1325.810547	36384.699219
10.000000	1324.750000	35960.199219
10.000000	1323.688477	35796.132813
10.000000	1322.627930	35577.730469
10.000000	1321.566406	35404.351563
10.000000	1320.504883	35469.847656
10.000000	1319.443359	35239.832031
10.000000	1318.380859	35787.441406
10.000000	1317.318359	35923.683594
10.000000	1316.255859	35996.078125
10.000000	1315.193359	35917.289063
10.000000	1314.129883	36535.089844
10.000000	1313.067383	36279.160156
10.000000	1312.003906	36615.742188
10.000000	1310.939453	37230.609375
10.000000	1309.875977	37946.644531
10.000000	1308.811523	38207.152344
10.000000	1307.747070	38969.812500
10.000000	1306.682617	39199.320313
10.000000	1305.617188	39977.917969
10.000000	1304.552734	40072.773438
10.000000	1303.487305	40570.460938
10.000000	1302.421875	41027.882813
10.000000	1301.355469	40957.585938
10.000000	1300.290039	41259.320313
10.000000	1299.223633	40793.535156
10.000000	1298.157227	41149.292969
10.000000	1297.089844	41029.605469
10.000000	1296.023438	41331.042969
10.000000	1294.956055	41573.542969
10.000000	1293.888672	41427.968750
10.000000	1292.820313	41602.160156
10.000000	1291.752930	41000.679688
10.000000	1290.684570	40766.023438
10.000000	1289.616211	40825.125000
10.000000	1288.546875	40198.367188
10.000000	1287.478516	39935.855469
10.000000	1286.409180	39441.039063
10.000000	1285.339844	38986.335938
10.000000	1284.270508	38635.085938
10.000000	1283.200195	38147.914063
10.000000	1282.129883	37703.171875
10.000000	1281.059570	37214.070313
10.000000	1279.989258	36671.253906
10.000000	1278.918945	35716.128906
10.000000	1277.847656	35037.957031
10.000000	1276.776367	34767.761719
10.000000	1275.705078	34603.101563
10.000000	1274.632813	33932.644531
10.000000	1273.561523	33239.066406
10.000000	1272.489258	32995.250000
10.000000	1271.416016	32868.562500
10.000000	1270.343750	32877.636719
10.000000	1269.270508	32575.572266
10.000000	1268.197266	32170.730469
10.000000	1267.124023	32170.593750
10.000000	1266.050781	32004.470703
10.000000	1264.976563	31833.744141
10.000000	1263.902344	31487.833984
10.000000	1262.828125	31389.714844
10.000000	1261.753906	31170.179688
10.000000	1260.678711	31310.361328
10.000000	1259.603516	31576.548828
10.000000	1258.528320	31576.521484
10.000000	1257.452148	32103.894531
10.000000	1256.376953	32089.746094
10.000000	1255.300781	32521.126953
10.000000	1254.224609	32614.162109
10.000000	1253.147461	33366.984375
10.000000	1252.071289	34009.906250
10.000000	1250.994141	34622.246094
10.000000	1249.916992	34421.136719
10.000000	1248.839844	35205.484375
10.000000	1247.761719	35593.558594
10.000000	1246.683594	35285.250000
10.000000	1245.605469	35149.339844
10.000000	1244.527344	35127.531250
10.000000	1243.448242	34866.062500
10.000000	1242.369141	34797.792969
10.000000	1241.290039	34222.515625
10.000000	1240.210938	33910.253906
10.000000	1239.130859	33656.250000
10.000000	1238.050781	33351.222656
10.000000	1236.970703	33106.746094
10.000000	1235.890625	32990.156250
10.000000	1234.810547	33342.804688
10.000000	1233.729492	33191.371094
10.000000	1232.648438	33067.867188
10.000000	1231.566406	33322.761719
10.000000	1230.485352	33306.027344
10.000000	1229.403320	33396.019531
10.000000	1228.321289	33107.875000
10.000000	1227.239258	32856.957031
10.000000	1226.156250	32582.966797
10.000000	1225.073242	32997.558594
10.000000	1223.990234	33187.160156
10.000000	1222.907227	32850.707031
10.000000	1221.823242	32530.621094
10.000000	1220.740234	32933.261719
10.000000	1219.656250	32754.537109
10.000000	1218.571289	32534.218750
10.000000	1217.487305	32681.992188
10.000000	1216.402344	33061.085938
10.000000	1215.317383	32419.802734
10.000000	1214.232422	32673.884766
10.000000	1213.146484	32227.207031
10.000000	1212.060547	31905.566406
10.000000	1210.974609	31870.669922
10.000000	1209.888672	32018.337891
10.000000	1208.802734	32117.421875
10.000000	1207.715820	32391.998047
10.000000	1206.628906	32738.035156
10.000000	1205.541992	33282.464844
10.000000	1204.454102	33404.246094
10.000000	1203.366211	34539.039063
10.000000	1202.278320	34969.632813
10.000000	1201.190430	35662.992188
10.000000	1200.101563	36404.460938
10.000000	1199.013672	37025.703125
10.000000	1197.924805	36929.781250
10.000000	1196.834961	37324.769531
10.000000	1195.746094	38092.835938
10.000000	1194.656250	38609.464844
10.000000	1193.566406	39245.617188
10.000000	1192.476563	39734.117188
10.000000	1191.385742	40556.179688
10.000000	1190.294922	41301.921875
10.000000	1189.204102	42097.945313
10.000000	1188.113281	43772.363281
10.000000	1187.021484	45282.734375
10.000000	1185.930664	47762.753906
10.000000	1184.838867	48784.175781
10.000000	1183.746094	51443.847656
10.000000	1182.654297	53736.964844
10.000000	1181.561523	55663.769531
10.000000	1180.468750	57518.496094
10.000000	1179.375977	60318.445313
10.000000	1178.282227	63126.308594
10.000000	1177.188477	65861.750000
10.000000	1176.094727	68260.914063
10.000000	1175.000977	70028.085938
10.000000	1173.906250	71060.476563
10.000000	1172.811523	70741.726563
10.000000	1171.716797	69386.828125
10.000000	1170.622070	67555.781250
10.000000	1169.526367	64994.535156
10.000000	1168.431641	62885.781250
10.000000	1167.334961	59983.148438
10.000000	1166.239258	58009.292969
10.000000	1165.143555	55846.296875
10.000000	1164.046875	53290.562500
10.000000	1162.950195	51857.339844
10.000000	1161.852539	50253.167969
10.000000	1160.755859	48430.117188
10.000000	1159.658203	46758.828125
10.000000	1158.560547	46062.308594
10.000000	1157.461914	44374.015625
10.000000	1156.364258	43061.285156
10.000000	1155.265625	41123.093750
10.000000	1154.166992	39528.429688
10.000000	1153.067383	38473.468750
10.000000	1151.967773	37213.484375
10.000000	1150.869141	36460.851563
10.000000	1149.768555	35496.300781
10.000000	1148.668945	34413.535156
10.000000	1147.568359	34033.882813
10.000000	1146.467773	33323.691406
10.000000	1145.367188	32835.000000
10.000000	1144.266602	32608.689453
10.000000	1143.165039	32810.964844
10.000000	1142.063477	32311.320313
10.000000	1140.961914	32515.843750
10.000000	1139.859375	32223.750000
10.000000	1138.757813	32514.722656
10.000000	1137.655273	32277.392578
10.000000	1136.551758	32870.933594
10.000000	1135.449219	32447.029297
10.000000	1134.345703	32189.392578
10.000000	1133.242188	32552.810547
10.000000	1132.138672	32363.480469
10.000000	1131.034180	32581.185547
10.000000	1129.929688	32705.595703
10.000000	1128.825195	32782.226563
10.000000	1127.720703	32690.695313
10.000000	1126.616211	32537.876953
10.000000	1125.510742	32696.234375
10.000000	1124.405273	32924.898438
10.000000	1123.298828	32851.566406
10.000000	1122.193359	32467.363281
10.000000	1121.086914	31756.623047
10.000000	1119.980469	31216.326172
10.000000	1118.873047	30830.482422
10.000000	1117.766602	30646.599609
10.000000	1116.659180	30261.054688
10.000000	1115.551758	30163.496094
10.000000	1114.443359	29905.111328
10.000000	1113.335938	29855.242188
10.000000	1112.227539	29356.984375
10.000000	1111.118164	28906.500000
10.000000	1110.009766	28401.890625
10.000000	1108.900391	28655.656250
10.000000	1107.791016	28069.875000
10.000000	1106.681641	27776.169922
10.000000	1105.572266	27150.144531
10.000000	1104.461914	27028.617188
10.000000	1103.351563	26708.216797
10.000000	1102.241211	26252.357422
10.000000	1101.129883	25742.478516
10.000000	1100.018555	25872.121094
10.000000	1098.907227	25748.753906
10.000000	1097.795898	25219.009766
10.000000	1096.683594	25100.357422
10.000000	1095.572266	24853.113281
10.000000	1094.458984	24845.158203
10.000000	1093.346680	24568.755859
10.000000	1092.234375	24664.611328
10.000000	1091.121094	24643.167969
10.000000	1090.006836	24463.929688
10.000000	1088.893555	24397.460938
10.000000	1087.779297	24346.794922
10.000000	1086.666016	24789.505859
10.000000	1085.550781	24603.630859
10.000000	1084.436523	24762.355469
10.000000	1083.321289	25080.839844
10.000000	1082.206055	24924.279297
10.000000	1081.090820	25440.591797
10.000000	1079.974609	26096.144531
10.000000	1078.859375	26593.951172
10.000000	1077.743164	26619.314453
10.000000	1076.625977	26628.925781
10.000000	1075.509766	26825.082031
10.000000	1074.392578	26562.740234
10.000000	1073.275391	26361.171875
10.000000	1072.158203	26146.218750
10.000000	1071.040039	25994.236328
10.000000	1069.921875	25712.111328
10.000000	1068.803711	25757.808594
10.000000	1067.685547	26126.615234
10.000000	1066.566406	25757.152344
10.000000	1065.447266	25991.207031
10.000000	1064.328125	25545.697266
10.000000	1063.208008	25719.156250
10.000000	1062.088867	25753.564453
10.000000	1060.968750	25796.919922
10.000000	1059.847656	25696.869141
10.000000	1058.727539	25903.720703
10.000000	1057.606445	25514.812500
10.000000	1056.485352	25267.126953
10.000000	1055.364258	25440.351563
10.000000	1054.242188	25499.367188
10.000000	1053.120117	24723.857422
10.000000	1051.998047	24624.197266
10.000000	1050.875977	24189.148438
10.000000	1049.752930	24194.730469
10.000000	1048.629883	23916.439453
10.000000	1047.506836	23893.027344
10.000000	1046.383789	23344.597656
10.000000	1045.259766	23013.082031
10.000000	1044.135742	22755.412109
10.000000	1043.011719	22442.041016
10.000000	1041.886719	22448.001953
10.000000	1040.762695	21936.234375
10.000000	1039.637695	21908.837891
10.000000	1038.511719	22155.806641
10.000000	1037.386719	21800.556641
10.000000	1036.260742	21956.023438
10.000000	1035.134766	21868.457031
10.000000	1034.007813	21925.777344
10.000000	1032.881836	22098.921875
10.000000	1031.754883	22098.246094
10.000000	1030.627930	22487.275391
10.000000	1029.500000	22755.896484
10.000000	1028.372070	23177.974609
10.000000	1027.245117	23375.095703
10.000000	1026.116211	23714.509766
10.000000	1024.988281	24160.531250
10.000000	1023.859375	24097.093750
10.000000	1022.730469	23689.072266
10.000000	1021.601563	23259.011719
10.000000	1020.471680	23002.484375
10.000000	1019.341797	22763.847656
10.000000	1018.211914	22320.966797
10.000000	1017.082031	21840.539063
10.000000	1015.951172	22215.099609
10.000000	1014.820313	22021.251953
10.000000	1013.689453	22033.871094
10.000000	1012.557617	22146.322266
10.000000	1011.426758	22280.898438
10.000000	1010.293945	22058.376953
10.000000	1009.162109	22144.128906
10.000000	1008.030273	21848.591797
10.000000	1006.897461	21925.484375
10.000000	1005.764648	21621.269531
10.000000	1004.630859	21620.650391
10.000000	1003.498047	22102.787109
10.000000	1002.364258	22372.154297
10.000000	1001.230469	22574.988281
10.000000	1000.095703	23105.240234
10.000000	998.960938	23422.849609
10.000000	997.826172	23826.572266
10.000000	996.691406	23776.771484
10.000000	995.556641	23804.369141
10.000000	994.420898	23639.652344
10.000000	993.285156	23530.255859
10.000000	992.148438	23712.535156
10.000000	991.012695	23523.650391
10.000000	989.875977	23049.984375
10.000000	988.739258	23046.791016
10.000000	987.601563	22919.988281
10.000000	986.463867	22704.974609
10.000000	985.326172	22505.503906
10.000000	984.188477	22848.722656
10.000000	983.049805	23132.238281
10.000000	981.912109	23391.365234
10.000000	980.773438	23216.156250
10.000000	979.633789	23100.521484
10.000000	978.495117	23103.908203
10.000000	977.355469	23316.535156
10.000000	976.214844	23236.183594
10.000000	975.075195	23006.164063
10.000000	973.934570	22956.732422
10.000000	972.793945	23083.363281
10.000000	971.653320	22954.734375
10.000000	970.511719	23208.869141
10.000000	969.370117	23559.636719
10.000000	968.228516	23525.509766
10.000000	967.086914	23335.343750
10.000000	965.944336	23633.087891
10.000000	964.801758	24009.777344
10.000000	963.659180	23604.378906
10.000000	962.516602	23941.367188
10.000000	961.373047	23252.972656
10.000000	960.229492	23295.773438
10.000000	959.084961	22901.884766
10.000000	957.941406	23304.523438
10.000000	956.796875	23103.820313
10.000000	955.652344	23256.242188
10.000000	954.506836	23202.519531
10.000000	953.362305	23595.929688
10.000000	952.216797	23667.044922
10.000000	951.070313	23586.966797
10.000000	949.924805	24150.830078
10.000000	948.778320	24243.650391
10.000000	947.631836	24126.269531
10.000000	946.485352	24488.246094
10.000000	945.337891	24867.550781
10.000000	944.190430	25356.052734
10.000000	943.042969	25765.585938
10.000000	941.894531	25595.492188
10.000000	940.747070	25554.451172
10.000000	939.597656	25854.361328
10.000000	938.449219	25288.878906
10.000000	937.300781	25088.464844
10.000000	936.151367	24739.634766
10.000000	935.001953	24803.634766
10.000000	933.851563	24105.767578
10.000000	932.701172	23787.962891
10.000000	931.550781	23758.312500
10.000000	930.400391	22899.763672
10.000000	929.250000	23251.976563
10.000000	928.098633	23141.796875
10.000000	926.947266	23227.845703
10.000000	925.794922	23684.326172
10.000000	924.642578	24022.935547
10.000000	923.490234	24936.433594
10.000000	922.337891	26426.589844
10.000000	921.185547	28188.183594
10.000000	920.032227	29792.212891
10.000000	918.878906	31092.988281
10.000000	917.724609	32132.064453
10.000000	916.571289	33018.382813
10.000000	915.416992	33112.714844
10.000000	914.262695	32941.761719
10.000000	913.107422	32616.562500
10.000000	911.952148	31917.750000
10.000000	910.796875	31343.099609
10.000000	909.641602	30295.222656
10.000000	908.485352	29706.027344
10.000000	907.329102	28663.376953
10.000000	906.172852	27378.128906
10.000000	905.016602	26796.550781
10.000000	903.859375	25965.763672
10.000000	902.702148	25597.347656
10.000000	901.544922	24821.449219
10.000000	900.386719	24362.425781
10.000000	899.228516	23628.367188
10.000000	898.070313	23325.853516
10.000000	896.911133	23073.308594
10.000000	895.752930	23054.785156
10.000000	894.593750	23027.607422
10.000000	893.433594	22883.542969
10.000000	892.274414	22910.519531
10.000000	891.114258	22679.998047
10.000000	889.954102	22473.378906
10.000000	888.792969	22537.191406
10.000000	887.632813	22369.619141
10.000000	886.470703	22621.480469
10.000000	885.309570	22827.835938
10.000000	884.148438	22956.306641
10.000000	882.986328	22987.511719
10.000000	881.824219	23035.972656
10.000000	880.661133	23198.837891
10.000000	879.498047	23348.669922
10.000000	878.334961	23489.792969
10.000000	877.171875	23266.234375
10.000000	876.007813	23031.994141
10.000000	874.843750	22970.378906
10.000000	873.679688	22695.353516
10.000000	872.515625	22194.142578
10.000000	871.350586	22201.720703
10.000000	870.185547	21948.615234
10.000000	869.020508	22010.089844
10.000000	867.854492	22282.556641
10.000000	866.688477	22111.412109
10.000000	865.522461	22256.732422
10.000000	864.356445	22567.666016
10.000000	863.189453	22676.228516
10.000000	862.022461	22528.800781
10.000000	860.854492	22559.908203
10.000000	859.687500	22778.019531
10.000000	858.519531	22742.421875
10.000000	857.351563	22790.634766
10.000000	856.182617	23139.556641
10.000000	855.013672	23604.279297
10.000000	853.844727	23817.564453
10.000000	852.675781	23994.251953
10.000000	851.505859	24503.486328
10.000000	850.335938	24523.291016
10.000000	849.166016	24422.964844
10.000000	847.995117	24080.357422
10.000000	846.825195	23971.603516
10.000000	845.653320	23646.412109
10.000000	844.482422	23719.958984
10.000000	843.310547	23842.740234
10.000000	842.138672	23494.248047
10.000000	840.966797	23736.935547
10.000000	839.793945	23540.628906
10.000000	838.622070	23560.587891
10.000000	837.448242	23338.738281
10.000000	836.275391	23568.376953
10.000000	835.101563	23821.429688
10.000000	833.927734	24410.056641
10.000000	832.753906	24748.283203
10.000000	831.579102	24857.660156
10.000000	830.404297	25142.189453
10.000000	829.229492	25631.644531
10.000000	828.054688	25328.541016
10.000000	826.878906	25102.445313
10.000000	825.703125	25021.609375
10.000000	824.526367	25245.978516
10.000000	823.350586	24934.716797
10.000000	822.173828	24988.349609
10.000000	820.996094	25133.650391
10.000000	819.819336	25131.769531
10.000000	818.641602	24923.134766
10.000000	817.463867	24844.587891
10.000000	816.285156	24682.986328
10.000000	815.107422	24515.074219
10.000000	813.928711	24809.312500
10.000000	812.749023	25084.244141
10.000000	811.570313	25224.951172
10.000000	810.390625	25201.746094
10.000000	809.209961	25501.896484
10.000000	808.030273	25844.429688
10.000000	806.849609	25674.369141
10.000000	805.668945	25697.828125
10.000000	804.488281	25957.167969
10.000000	803.306641	25797.816406
10.000000	802.125000	25795.726563
10.000000	800.943359	25560.035156
10.000000	799.760742	25475.195313
10.000000	798.578125	25165.400391
10.000000	797.395508	24959.734375
10.000000	796.211914	24656.576172
10.000000	795.029297	24542.333984
10.000000	793.844727	24188.527344
10.000000	792.661133	24494.205078
10.000000	791.476563	24089.712891
10.000000	790.291992	24475.775391
10.000000	789.107422	24764.199219
10.000000	787.922852	25008.000000
10.000000	786.737305	25262.265625
10.000000	785.550781	25315.300781
10.000000	784.365234	24710.130859
10.000000	783.178711	24012.162109
10.000000	781.992188	23335.685547
10.000000	780.805664	22553.804688
10.000000	779.618164	22273.376953
10.000000	778.430664	21828.216797
10.000000	777.243164	21419.197266
10.000000	776.054688	21327.277344
10.000000	774.866211	21165.697266
10.000000	773.677734	21050.650391
10.000000	772.489258	20834.324219
10.000000	771.299805	20523.128906
10.000000	770.110352	20978.027344
10.000000	768.919922	20823.048828
10.000000	767.730469	21119.466797
10.000000	766.540039	21188.019531
10.000000	765.348633	22310.509766
10.000000	764.158203	23934.005859
10.000000	762.966797	26037.064453
10.000000	761.774414	28410.796875
10.000000	760.583008	29671.453125
10.000000	759.390625	29068.263672
10.000000	758.198242	26438.443359
10.000000	757.005859	24165.552734
10.000000	755.812500	22566.990234
10.000000	754.619141	21728.488281
10.000000	753.424805	21275.195313
10.000000	752.231445	21383.410156
10.000000	751.037109	21043.912109
10.000000	749.842773	21114.302734
10.000000	748.647461	21659.392578
10.000000	747.452148	22118.103516
10.000000	746.256836	22412.816406
10.000000	745.060547	23255.226563
10.000000	743.865234	23486.546875
10.000000	742.668945	22721.201172
10.000000	741.471680	22031.746094
10.000000	740.274414	21986.390625
10.000000	739.077148	22039.585938
10.000000	737.879883	22157.724609
10.000000	736.681641	22782.878906
10.000000	735.484375	23627.671875
10.000000	734.285156	24484.605469
10.000000	733.086914	25692.861328
10.000000	731.887695	26360.445313
10.000000	730.688477	26820.509766
10.000000	729.488281	27196.650391
10.000000	728.288086	26869.792969
10.000000	727.087891	26541.001953
10.000000	725.887695	26218.644531
10.000000	724.686523	25865.093750
10.000000	723.485352	26040.382813
10.000000	722.284180	25979.513672
10.000000	721.082031	25849.750000
10.000000	719.879883	24728.246094
10.000000	718.677734	23327.580078
10.000000	717.474609	22353.353516
10.000000	716.272461	21602.863281
10.000000	715.068359	20846.492188
10.000000	713.865234	20803.695313
10.000000	712.661133	20329.353516
10.000000	711.457031	19778.126953
10.000000	710.251953	19825.226563
10.000000	709.047852	19466.060547
10.000000	707.842773	19490.298828
10.000000	706.636719	19404.162109
10.000000	705.431641	19255.617188
10.000000	704.225586	19333.990234
10.000000	703.018555	19297.884766
10.000000	701.812500	19051.705078
10.000000	700.605469	19223.640625
10.000000	699.397461	18985.914063
10.000000	698.190430	18904.195313
10.000000	696.982422	18967.972656
10.000000	695.774414	19403.582031
10.000000	694.565430	19539.888672
10.000000	693.356445	19607.599609
10.000000	692.147461	19810.207031
10.000000	690.938477	19840.453125
10.000000	689.728516	19833.332031
10.000000	688.518555	19778.503906
10.000000	687.308594	19922.783203
10.000000	686.097656	20183.085938
10.000000	684.886719	20101.255859
10.000000	683.674805	19990.451172
10.000000	682.463867	20033.003906
10.000000	681.251953	20056.892578
10.000000	680.040039	20136.669922
10.000000	678.827148	20328.189453
10.000000	677.614258	20403.710938
10.000000	676.401367	20764.716797
10.000000	675.187500	20715.972656
10.000000	673.973633	21180.107422
10.000000	672.759766	21395.906250
10.000000	671.545898	21117.601563
10.000000	670.331055	20940.687500
10.000000	669.116211	20571.736328
10.000000	667.900391	20607.773438
10.000000	666.684570	20749.091797
10.000000	665.468750	20741.708984
10.000000	664.252930	20783.855469
10.000000	663.036133	21170.533203
10.000000	661.819336	21035.150391
10.000000	660.602539	21056.556641
10.000000	659.384766	21543.875000
10.000000	658.166992	21495.054688
10.000000	656.948242	21757.400391
10.000000	655.730469	21959.867188
10.000000	654.511719	22098.382813
10.000000	653.291992	22271.824219
10.000000	652.073242	22480.166016
10.000000	650.853516	22328.263672
10.000000	649.633789	22474.753906
10.000000	648.413086	22627.335938
10.000000	647.192383	22545.416016
10.000000	645.971680	22389.527344
10.000000	644.750000	22560.498047
10.000000	643.528320	22659.462891
10.000000	642.306641	22873.406250
10.000000	641.084961	22871.601563
10.000000	639.862305	22843.101563
10.000000	638.639648	22831.035156
10.000000	637.416016	22884.634766
10.000000	636.192383	22689.968750
10.000000	634.968750	22786.640625
10.000000	633.745117	22752.029297
10.000000	632.520508	22500.138672
10.000000	631.295898	22328.300781
10.000000	630.070313	22302.017578
10.000000	628.844727	21986.927734
10.000000	627.619141	22114.326172
10.000000	626.393555	22276.457031
10.000000	625.166992	22137.628906
10.000000	623.940430	22140.056641
10.000000	622.712891	21841.763672
10.000000	621.486328	22153.078125
10.000000	620.258789	22075.748047
10.000000	619.030273	21984.146484
10.000000	617.802734	21708.667969
10.000000	616.573242	21486.447266
10.000000	615.344727	21560.500000
10.000000	614.115234	21542.623047
15.000000	1722.566406	12494.704102
15.000000	1721.590820	12672.061523
15.000000	1720.613281	12828.828125
15.000000	1719.636719	12882.755859
15.000000	1718.659180	12769.685547
15.000000	1717.682617	12859.557617
15.000000	1716.705078	12828.704102
15.000000	1715.727539	12718.277344
15.000000	1714.749023	13141.779297
15.000000	1713.771484	13123.714844
15.000000	1712.792969	13020.988281
15.000000	1711.814453	12913.171875
15.000000	1710.835938	12864.385742
15.000000	1709.856445	12902.798828
15.000000	1708.877930	12777.123047
15.000000	1707.898438	12941.127930
15.000000	1706.918945	12756.553711
15.000000	1705.939453	12807.762695
15.000000	1704.958984	12971.657227
15.000000	1703.979492	13030.482422
15.000000	1702.999023	13050.875000
15.000000	1702.018555	13137.817383
15.000000	1701.038086	13206.806641
15.000000	1700.056641	13234.823242
15.000000	1699.076172	13237.243164
15.000000	1698.094727	13357.324219
15.000000	1697.113281	13180.699219
15.000000	1696.131836	13073.180664
15.000000	1695.149414	13267.350586
15.000000	1694.167969	13538.115234
15.000000	1693.185547	13371.813477
15.000000	1692.203125	13619.450195
15.000000	1691.219727	13731.609375
15.000000	1690.237305	13953.532227
15.000000	1689.253906	13590.679688
15.000000	1688.270508	13610.875977
15.000000	1687.287109	13677.001953
15.000000	1686.303711	13707.375977
15.000000	1685.320313	13719.878906
15.000000	1684.335938	13660.958008
15.000000	1683.351563	13739.764648
15.000000	1682.367188	13866.978516
15.000000	1681.382813	14108.844727
15.000000	1680.397461	13958.141602
15.000000	1679.412109	13881.390625
15.000000	1678.426758	13990.633789
15.000000	1677.441406	14316.320313
15.000000	1676.456055	14321.023438
15.000000	1675.469727	14236.618164
15.000000	1674.483398	14429.690430
15.000000	1673.497070	14467.446289
15.000000	1672.510742	14436.489258
15.000000	1671.524414	14626.853516
15.000000	1670.537109	14639.109375
15.000000	1669.549805	14798.837891
15.000000	1668.562500	14994.091797
15.000000	1667.575195	14963.050781
15.000000	1666.587891	15188.680664
15.000000	1665.599609	15409.135742
15.000000	1664.611328	15741.265625
15.000000	1663.623047	15707.550781
15.000000	1662.634766	15673.848633
15.000000	1661.646484	15952.403320
15.000000	1660.657227	16299.370117
15.000000	1659.667969	16191.973633
15.000000	1658.678711	16447.412109
15.000000	1657.689453	16230.958984
15.000000	1656.699219	16303.691406
15.000000	1655.708984	16505.701172
15.000000	1654.718750	16621.437500
15.000000	1653.728516	16503.960938
15.000000	1652.738281	17111.218750
15.000000	1651.747070	17120.353516
15.000000	1650.756836	17385.296875
15.000000	1649.765625	17128.476563
15.000000	1648.773438	17208.488281
15.000000	1647.782227	17349.214844
15.000000	1646.790039	17555.679688
15.000000	1645.798828	17850.615234
15.000000	1644.806641	17616.722656
15.000000	1643.813477	17883.699219
15.000000	1642.821289	18388.255859
15.000000	1641.828125	18207.484375
15.000000	1640.834961	18491.861328
15.000000	1639.841797	18879.728516
15.000000	1638.848633	18885.925781
15.000000	1637.854492	19387.216797
15.000000	1636.861328	19370.574219
15.000000	1635.867188	19608.957031
15.000000	1634.873047	20008.804688
15.000000	1633.877930	20317.623047
15.000000	1632.883789	20800.427734
15.000000	1631.888672	20955.054688
15.000000	1630.893555	21266.001953
15.000000	1629.898438	22058.488281
15.000000	1628.902344	22573.298828
15.000000	1627.907227	23125.707031
15.000000	1626.911133	23982.833984
15.000000	1625.915039	24660.701172
15.000000	1624.918945	25484.400391
15.000000	1623.921875	26247.304688
15.000000	1622.924805	27425.388672
15.000000	1621.928711	28519.898438
15.000000	1620.930664	29931.105469
15.000000	1619.933594	31454.972656
15.000000	1618.936523	33091.425781
15.000000	1617.938477	34528.464844
15.000000	1616.940430	36314.488281
15.000000	1615.942383	36772.113281
15.000000	1614.943359	37714.738281
15.000000	1613.945313	38634.347656
15.000000	1612.946289	39337.457031
15.000000	1611.947266	39939.773438
15.000000	1610.948242	40247.945313
15.000000	1609.948242	40530.871094
15.000000	1608.949219	40969.343750
15.000000	1607.949219	41282.117188
15.000000	1606.949219	40392.566406
15.000000	1605.948242	40845.839844
15.000000	1604.948242	41454.464844
15.000000	1603.947266	41729.238281
15.000000	1602.946289	42066.582031
15.000000	1601.945313	42581.792969
15.000000	1600.944336	43497.847656
15.000000	1599.942383	45503.679688
15.000000	1598.940430	46491.398438
15.000000	1597.938477	48748.769531
15.000000	1596.936523	50992.667969
15.000000	1595.934570	53741.441406
15.000000	1594.931641	55450.101563
15.000000	1593.928711	58294.398438
15.000000	1592.925781	59868.750000
15.000000	1591.922852	62368.152344
15.000000	1590.918945	64026.031250
15.000000	1589.915039	65418.117188
15.000000	1588.911133	66444.554688
15.000000	1587.907227	67610.554688
15.000000	1586.903320	68348.671875
15.000000	1585.898438	68926.554688
15.000000	1584.894531	68487.398438
15.000000	1583.889648	68582.929688
15.000000	1582.883789	68126.531250
15.000000	1581.878906	67003.703125
15.000000	1580.873047	66125.968750
15.000000	1579.867188	63993.285156
15.000000	1578.861328	62106.011719
15.000000	1577.855469	60102.277344
15.000000	1576.848633	57189.046875
15.000000	1575.842773	55384.167969
15.000000	1574.835938	54497.476563
15.000000	1573.828125	51754.242188
15.000000	1572.821289	50315.457031
15.000000	1571.813477	48942.050781
15.000000	1570.805664	47257.851563
15.000000	1569.797852	45853.285156
15.000000	1568.790039	44576.285156
15.000000	1567.782227	43142.992188
15.000000	1566.773438	41891.980469
15.000000	1565.764648	40571.824219
15.000000	1564.755859	40553.324219
15.000000	1563.747070	39843.375000
15.000000	1562.737305	39096.417969
15.000000	1561.727539	38809.722656
15.000000	1560.717773	38615.113281
15.000000	1559.708008	38723.773438
15.000000	1558.697266	37699.390625
15.000000	1557.687500	37567.230469
15.000000	1556.676758	36585.738281
15.000000	1555.666016	36178.242188
15.000000	1554.654297	35572.312500
15.000000	1553.643555	35463.039063
15.000000	1552.631836	35453.070313
15.000000	1551.620117	34986.601563
15.000000	1550.608398	35177.644531
15.000000	1549.596680	35465.320313
15.000000	1548.583984	35680.968750
15.000000	1547.571289	35812.242188
15.000000	1546.558594	35554.359375
15.000000	1545.545898	36225.761719
15.000000	1544.532227	35950.550781
15.000000	1543.518555	36398.667969
15.000000	1542.504883	37022.410156
15.000000	1541.491211	37564.183594
15.000000	1540.477539	37796.324219
15.000000	1539.462891	38441.636719
15.000000	1538.448242	39430.578125
15.000000	1537.433594	40213.785156
15.000000	1536.418945	40919.992188
15.000000	1535.404297	41522.046875
15.000000	1534.388672	42605.894531
15.000000	1533.373047	43081.281250
15.000000	1532.357422	43319.246094
15.000000	1531.340820	43769.566406
15.000000	1530.325195	43466.355469
15.000000	1529.308594	43192.902344
15.000000	1528.291992	42764.019531
15.000000	1527.275391	42846.269531
15.000000	1526.257813	42279.433594
15.000000	1525.240234	41954.636719
15.000000	1524.223633	41242.683594
15.000000	1523.205078	41046.480469
15.000000	1522.187500	40810.910156
15.000000	1521.168945	40676.507813
15.000000	1520.151367	40473.144531
15.000000	1519.132813	40279.726563
15.000000	1518.113281	39881.898438
15.000000	1517.094727	39309.355469
15.000000	1516.075195	39468.449219
15.000000	1515.055664	38733.730469
15.000000	1514.036133	38284.863281
15.000000	1513.016602	38421.917969
15.000000	1511.996094	38172.601563
15.000000	1510.975586	38432.613281
15.000000	1509.955078	38077.640625
15.000000	1508.934570	38202.312500
15.000000	1507.914063	38290.046875
15.000000	1506.892578	38249.933594
15.000000	1505.871094	38659.535156
15.000000	1504.849609	38653.746094
15.000000	1503.827148	39271.871094
15.000000	1502.805664	39376.460938
15.000000	1501.783203	39318.953125
15.000000	1500.760742	39519.214844
15.000000	1499.738281	39162.277344
15.000000	1498.714844	39458.179688
15.000000	1497.691406	39422.769531
15.000000	1496.668945	39691.500000
15.000000	1495.644531	40033.679688
15.000000	1494.621094	40226.156250
15.000000	1493.596680	40457.769531
15.000000	1492.573242	40444.218750
15.000000	1491.547852	40680.578125
15.000000	1490.523438	41080.949219
15.000000	1489.499023	41559.515625
15.000000	1488.473633	42059.910156
15.000000	1487.448242	42290.808594
15.000000	1486.422852	43689.031250
15.000000	1485.396484	45013.242188
15.000000	1484.371094	45607.863281
15.000000	1483.344727	46483.496094
15.000000	1482.318359	46852.570313
15.000000	1481.291992	47067.457031
15.000000	1480.264648	47035.375000
15.000000	1479.237305	46690.500000
15.000000	1478.209961	46949.250000
15.000000	1477.182617	46418.886719
15.000000	1476.155273	46225.769531
15.000000	1475.126953	45776.355469
15.000000	1474.098633	45480.925781
15.000000	1473.070313	45478.492188
15.000000	1472.041992	44517.093750
15.000000	1471.012695	44383.125000
15.000000	1469.983398	44263.839844
15.000000	1468.954102	43205.769531
15.000000	1467.924805	42699.140625
15.000000	1466.895508	41885.605469
15.000000	1465.865234	41284.425781
15.000000	1464.834961	40717.613281
15.000000	1463.804688	39883.089844
15.000000	1462.773438	39212.093750
15.000000	1461.743164	39123.316406
15.000000	1460.711914	39080.824219
15.000000	1459.680664	38931.257813
15.000000	1458.649414	38991.015625
15.000000	1457.617188	38790.437500
15.000000	1456.584961	39368.261719
15.000000	1455.552734	39352.492188
15.000000	1454.520508	39893.472656
15.000000	1453.488281	40507.136719
15.000000	1452.455078	41079.218750
15.000000	1451.421875	42066.515625
15.000000	1450.388672	42861.488281
15.000000	1449.355469	43779.968750
15.000000	1448.321289	45057.402344
15.000000	1447.288086	45958.015625
15.000000	1446.253906	47188.308594
15.000000	1445.218750	48976.160156
15.000000	1444.184570	50532.765625
15.000000	1443.149414	51792.796875
15.000000	1442.114258	52787.960938
15.000000	1441.079102	54556.074219
15.000000	1440.043945	55407.195313
15.000000	1439.007813	56902.558594
15.000000	1437.971680	58208.285156
15.000000	1436.935547	58721.355469
15.000000	1435.899414	59597.464844
15.000000	1434.862305	59262.562500
15.000000	1433.826172	58172.535156
15.000000	1432.789063	57206.402344
15.000000	1431.750977	55839.015625
15.000000	1430.713867	53831.136719
15.000000	1429.675781	51949.890625
15.000000	1428.637695	50582.093750
15.000000	1427.599609	49110.929688
15.000000	1426.561523	47461.535156
15.000000	1425.522461	46110.082031
15.000000	1424.483398	44727.800781
15.000000	1423.444336	44017.625000
15.000000	1422.405273	43124.214844
15.000000	1421.365234	42504.019531
15.000000	1420.326172	41852.710938
15.000000	1419.286133	41749.519531
15.000000	1418.245117	41190.339844
15.000000	1417.205078	41523.968750
15.000000	1416.164063	41121.839844
15.000000	1415.123047	41231.078125
15.000000	1414.082031	41559.648438
15.000000	1413.041016	41945.921875
15.000000	1411.999023	41874.171875
15.000000	1410.957031	41681.984375
15.000000	1409.915039	41646.445313
15.000000	1408.873047	41957.695313
15.000000	1407.831055	41712.636719
15.000000	1406.788086	42278.886719
15.000000	1405.745117	42616.257813
15.000000	1404.702148	42645.500000
15.000000	1403.658203	43146.218750
15.000000	1402.614258	44009.875000
15.000000	1401.571289	44344.160156
15.000000	1400.526367	45885.097656
15.000000	1399.482422	46521.660156
15.000000	1398.437500	47482.339844
15.000000	1397.393555	48387.339844
15.000000	1396.347656	49133.417969
15.000000	1395.302734	49463.726563
15.000000	1394.257813	50146.812500
15.000000	1393.211914	50332.730469
15.000000	1392.166016	50424.964844
15.000000	1391.120117	50579.542969
15.000000	1390.073242	50307.062500
15.000000	1389.026367	50408.824219
15.000000	1387.979492	50268.371094
15.000000	1386.932617	50499.535156
15.000000	1385.885742	50407.046875
15.000000	1384.837891	50048.617188
15.000000	1383.790039	50020.941406
15.000000	1382.742188	49679.511719
15.000000	1381.694336	49419.640625
15.000000	1380.645508	49047.359375
15.000000	1379.596680	48040.945313
15.000000	1378.547852	47463.316406
15.000000	1377.499023	47385.968750
15.000000	1376.450195	47373.234375
15.000000	1375.400391	47735.964844
15.000000	1374.350586	47892.910156
15.000000	1373.300781	48377.265625
15.000000	1372.250000	47855.265625
15.000000	1371.199219	48016.847656
15.000000	1370.148438	48147.300781
15.000000	1369.097656	48160.660156
15.000000	1368.046875	48439.062500
15.000000	1366.995117	48710.171875
15.000000	1365.943359	48673.269531
15.000000	1364.891602	48989.542969
15.000000	1363.839844	49825.757813
15.000000	1362.787109	49795.777344
15.000000	1361.735352	49935.117188
15.000000	1360.682617	50677.582031
15.000000	1359.628906	50754.687500
15.000000	1358.576172	49895.191406
15.000000	1357.522461	49507.816406
15.000000	1356.468750	48546.531250
15.000000	1355.415039	47276.062500
15.000000	1354.360352	46296.628906
15.000000	1353.306641	45110.515625
15.000000	1352.251953	44505.636719
15.000000	1351.196289	42925.441406
15.000000	1350.141602	42178.558594
15.000000	1349.085938	42071.796875
15.000000	1348.030273	41917.519531
15.000000	1346.974609	41416.210938
15.000000	1345.918945	41392.863281
15.000000	1344.862305	41728.347656
15.000000	1343.806641	41260.660156
15.000000	1342.749023	41778.917969
15.000000	1341.692383	41513.273438
15.000000	1340.635742	41634.742188
15.000000	1339.578125	41392.972656
15.000000	1338.520508	41550.007813
15.000000	1337.462891	41315.472656
15.000000	1336.404297	41678.824219
15.000000	1335.345703	41038.808594
15.000000	1334.287109	40337.425781
15.000000	1333.228516	39816.507813
15.000000	1332.169922	38942.675781
15.000000	1331.110352	37829.902344
15.000000	1330.050781	37091.917969
15.000000	1328.991211	36655.058594
15.000000	1327.930664	36284.691406
15.000000	1326.871094	35786.640625
15.000000	1325.810547	35932.613281
15.000000	1324.750000	35583.937500
15.000000	1323.688477	35779.570313
15.000000	1322.627930	35669.980469
15.000000	1321.566406	36019.218750
15.000000	1320.504883	35841.050781
15.000000	1319.443359	35993.890625
15.000000	1318.380859	36253.011719
15.000000	1317.318359	36216.667969
15.000000	1316.255859	35778.753906
15.000000	1315.193359	35395.347656
15.000000	1314.129883	35401.707031
15.000000	1313.067383	35403.339844
15.000000	1312.003906	35928.929688
15.000000	1310.939453	36185.281250
15.000000	1309.875977	36547.679688
15.000000	1308.811523	36471.214844
15.000000	1307.747070	36998.449219
15.000000	1306.682617	37409.925781
15.000000	1305.617188	37453.519531
15.000000	1304.552734	37122.398438
15.000000	1303.487305	36852.679688
15.000000	1302.421875	37221.414063
15.000000	1301.355469	36940.011719
15.000000	1300.290039	36748.199219
15.000000	1299.223633	36365.800781
15.000000	1298.157227	36529.558594
15.000000	1297.089844	36712.062500
15.000000	1296.023438	36487.523438
15.000000	1294.956055	36493.562500
15.000000	1293.888672	36652.429688
15.000000	1292.820313	36618.457031
15.000000	1291.752930	36457.582031
15.000000	1290.684570	36881.867188
15.000000	1289.616211	37045.195313
15.000000	1288.546875	36943.039063
15.000000	1287.478516	37068.703125
15.000000	1286.409180	37769.488281
15.000000	1285.339844	37582.734375
15.000000	1284.270508	37574.406250
15.000000	1283.200195	37533.230469
15.000000	1282.129883	37182.449219
15.000000	1281.059570	36932.660156
15.000000	1279.989258	36849.441406
15.000000	1278.918945	36302.136719
15.000000	1277.847656	35544.156250
15.000000	1276.776367	35458.949219
15.000000	1275.705078	35022.402344
15.000000	1274.632813	34965.445313
15.000000	1273.561523	34676.710938
15.000000	1272.489258	35104.417969
15.000000	1271.416016	35213.640625
15.000000	1270.343750	35121.582031
15.000000	1269.270508	35256.476563
15.000000	1268.197266	35112.988281
15.000000	1267.124023	35042.050781
15.000000	1266.050781	34648.519531
15.000000	1264.976563	34947.000000
15.000000	1263.902344	34532.628906
15.000000	1262.828125	34338.050781
15.000000	1261.753906	34276.687500
15.000000	1260.678711	34222.355469
15.000000	1259.603516	34228.746094
15.000000	1258.528320	34400.855469
15.000000	1257.452148	34745.578125
15.000000	1256.376953	34940.820313
15.000000	1255.300781	34515.500000
15.000000	1254.224609	35401.000000
15.000000	1253.147461	35344.148438
15.000000	1252.071289	35485.457031
15.000000	1250.994141	35701.277344
15.000000	1249.916992	35544.199219
15.000000	1248.839844	35629.453125
15.000000	1247.761719	35679.730469
15.000000	1246.683594	35180.468750
15.000000	1245.605469	35233.144531
15.000000	1244.527344	35092.621094
15.000000	1243.448242	35212.765625
15.000000	1242.369141	35025.777344
15.000000	1241.290039	35090.054688
15.000000	1240.210938	34700.867188
15.000000	1239.130859	35004.640625
15.000000	1238.050781	35247.843750
15.000000	1236.970703	34893.726563
15.000000	1235.890625	35280.878906
15.000000	1234.810547	35456.488281
15.000000	1233.729492	35399.796875
15.000000	1232.648438	35099.347656
15.000000	1231.566406	35186.664063
15.000000	1230.485352	34726.265625
15.000000	1229.403320	34730.097656
15.000000	1228.321289	34348.867188
15.000000	1227.239258	34137.097656
15.000000	1226.156250	34454.058594
15.000000	1225.073242	34437.070313
15.000000	1223.990234	34403.867188
15.000000	1222.907227	34674.203125
15.000000	1221.823242	34728.980469
15.000000	1220.740234	35286.300781
15.000000	1219.656250	35169.562500
15.000000	1218.571289	35238.074219
15.000000	1217.487305	35197.773438
15.000000	1216.402344	35263.925781
15.000000	1215.317383	35258.328125
15.000000	1214.232422	35144.027344
15.000000	1213.146484	34800.851563
15.000000	1212.060547	34887.828125
15.000000	1210.974609	34281.367188
15.000000	1209.888672	34190.484375
15.000000	1208.802734	33570.582031
15.000000	1207.715820	33535.328125
15.000000	1206.628906	33687.132813
15.000000	1205.541992	33617.226563
15.000000	1204.454102	33242.671875
15.000000	1203.366211	34008.273438
15.000000	1202.278320	34252.109375
15.000000	1201.190430	34998.679688
15.000000	1200.101563	35682.644531
15.000000	1199.013672	36363.996094
15.000000	1197.924805	36756.898438
15.000000	1196.834961	36773.980469
15.000000	1195.746094	37694.234375
15.000000	1194.656250	38213.257813
15.000000	1193.566406	38485.621094
15.000000	1192.476563	39600.574219
15.000000	1191.385742	39969.179688
15.000000	1190.294922	40581.566406
15.000000	1189.204102	41808.027344
15.000000	1188.113281	42727.976563
15.000000	1187.021484	43626.804688
15.000000	1185.930664	44927.617188
15.000000	1184.838867	46683.011719
15.000000	1183.746094	48908.773438
15.000000	1182.654297	52551.285156
15.000000	1181.561523	55319.171875
15.000000	1180.468750	59314.585938
15.000000	1179.375977	63232.414063
15.000000	1178.282227	66260.015625
15.000000	1177.188477	69322.960938
15.000000	1176.094727	71246.335938
15.000000	1175.000977	71858.859375
15.000000	1173.906250	70895.335938
15.000000	1172.811523	70049.187500
15.000000	1171.716797	68300.117188
15.000000	1170.622070	66382.218750
15.000000	1169.526367	62840.425781
15.000000	1168.431641	60629.058594
15.000000	1167.334961	58091.136719
15.000000	1166.239258	55607.031250
15.000000	1165.143555	53939.113281
15.000000	1164.046875	52477.960938
15.000000	1162.950195	50182.160156
15.000000	1161.852539	48779.707031
15.000000	1160.755859	47057.640625
15.000000	1159.658203	45841.761719
15.000000	1158.560547	44752.187500
15.000000	1157.461914	42773.878906
15.000000	1156.364258	41690.054688
15.000000	1155.265625	40565.585938
15.000000	1154.166992	39188.062500
15.000000	1153.067383	38562.539063
15.000000	1151.967773	37859.664063
15.000000	1150.869141	37090.902344
15.000000	1149.768555	36993.476563
15.000000	1148.668945	36410.078125
15.000000	1147.568359	36360.750000
15.000000	1146.467773	35748.101563
15.000000	1145.367188	35498.281250
15.000000	1144.266602	35175.621094
15.000000	1143.165039	34401.828125
15.000000	1142.063477	33646.613281
15.000000	1140.961914	32998.808594
15.000000	1139.859375	32551.726563
15.000000	1138.757813	32139.000000
15.000000	1137.655273	31708.248047
15.000000	1136.551758	31480.255859
15.000000	1135.449219	31281.949219
15.000000	1134.345703	31204.304688
15.000000	1133.242188	30831.005859
15.000000	1132.138672	30839.904297
15.000000	1131.034180	31412.619141
15.000000	1129.929688	30716.757813
15.000000	1128.825195	30959.728516
15.000000	1127.720703	30377.878906
15.000000	1126.616211	30266.470703
15.000000	1125.510742	30543.433594
15.000000	1124.405273	30584.148438
15.000000	1123.298828	29943.884766
15.000000	1122.193359	29689.697266
15.000000	1121.086914	30005.097656
15.000000	1119.980469	29617.175781
15.000000	1118.873047	29345.085938
15.000000	1117.766602	29592.322266
15.000000	1116.659180	29234.218750
15.000000	1115.551758	29184.484375
15.000000	1114.443359	28869.681641
15.000000	1113.335938	28294.523438
15.000000	1112.227539	28091.031250
15.000000	1111.118164	27754.042969
15.000000	1110.009766	27528.125000
15.000000	1108.900391	27408.675781
15.000000	1107.791016	27010.976563
15.000000	1106.681641	26875.859375
15.000000	1105.572266	26342.763672
15.000000	1104.461914	26384.216797
15.000000	1103.351563	26504.767578
15.000000	1102.241211	26134.835938
15.000000	1101.129883	25857.712891
15.000000	1100.018555	25659.775391
15.000000	1098.907227	25206.720703
15.000000	1097.795898	24963.861328
15.000000	1096.683594	25037.150391
15.000000	1095.572266	24846.343750
15.000000	1094.458984	24829.363281
15.000000	1093.346680	24460.474609
15.000000	1092.234375	24520.267578
15.000000	1091.121094	24404.154297
15.000000	1090.006836	24619.478516
15.000000	1088.893555	24485.359375
15.000000	1087.779297	24353.554688
15.000000	1086.666016	24550.710938
15.000000	1085.550781	24774.802734
15.000000	1084.436523	24971.765625
15.000000	1083.321289	25387.005859
15.000000	1082.206055	25615.244141
15.000000	1081.090820	25901.878906
15.000000	1079.974609	26512.332031
15.000000	1078.859375	26575.958984
15.000000	1077.743164	26803.703125
15.000000	1076.625977	27074.052734
15.000000	1075.509766	27519.589844
15.000000	1074.392578	27227.875000
15.000000	1073.275391	26794.759766
15.000000	1072.158203	26325.902344
15.000000	1071.040039	25980.763672
15.000000	1069.921875	24933.091797
15.000000	1068.803711	24671.474609
15.000000	1067.685547	24591.736328
15.000000	1066.566406	24521.005859
15.000000	1065.447266	24548.996094
15.000000	1064.328125	24850.544922
15.000000	1063.208008	24746.167969
15.000000	1062.088867	24886.148438
15.000000	1060.968750	24719.060547
15.000000	1059.847656	25087.492188
15.000000	1058.727539	25088.419922
15.000000	1057.606445	24910.197266
15.000000	1056.485352	24743.248047
15.000000	1055.364258	24755.435547
15.000000	1054.242188	24449.853516
15.000000	1053.120117	24001.226563
15.000000	1051.998047	23792.132813
15.000000	1050.875977	23636.802734
15.000000	1049.752930	23394.351563
15.000000	1048.629883	22901.667969
15.000000	1047.506836	22735.470703
15.000000	1046.383789	22672.121094
15.000000	1045.259766	22202.275391
15.000000	1044.135742	22029.650391
15.000000	1043.011719	21566.865234
15.000000	1041.886719	21573.027344
15.000000	1040.762695	21286.849609
15.000000	1039.637695	21754.896484
15.000000	1038.511719	21459.882813
15.000000	1037.386719	21637.767578
15.000000	1036.260742	21394.191406
15.000000	1035.134766	21531.880859
15.000000	1034.007813	21885.666016
15.000000	1032.881836	22161.304688
15.000000	1031.754883	22064.833984
15.000000	1030.627930	22761.183594
15.000000	1029.500000	23214.531250
15.000000	1028.372070	23783.412109
15.000000	1027.245117	24047.150391
15.000000	1026.116211	24090.505859
15.000000	1024.988281	24122.718750
15.000000	1023.859375	24161.583984
15.000000	1022.730469	23831.363281
15.000000	1021.601563	23287.908203
15.000000	1020.471680	23424.710938
15.000000	1019.341797	23165.980469
15.000000	1018.211914	22900.703125
15.000000	1017.082031	22786.554688
15.000000	1015.951172	22976.621094
15.000000	1014.820313	22731.542969
15.000000	1013.689453	22641.917969
15.000000	1012.557617	22212.880859
15.000000	1011.426758	22529.326172
15.000000	1010.293945	22242.435547
15.000000	1009.162109	22077.617188
15.000000	1008.030273	22158.910156
15.000000	1006.897461	22027.423828
15.000000	1005.764648	22339.099609
15.000000	1004.630859	22748.087891
15.000000	1003.498047	23128.093750
15.000000	1002.364258	23587.623047
15.000000	1001.230469	24097.843750
15.000000	1000.095703	24284.734375
15.000000	998.960938	24166.222656
15.000000	997.826172	24503.414063
15.000000	996.691406	24356.152344
15.000000	995.556641	24370.349609
15.000000	994.420898	24300.544922
15.000000	993.285156	24153.427734
15.000000	992.148438	24275.910156
15.000000	991.012695	24124.443359
15.000000	989.875977	24421.324219
15.000000	988.739258	24678.324219
15.000000	987.601563	24886.640625
15.000000	986.463867	24841.083984
15.000000	985.326172	24749.214844
15.000000	984.188477	24359.619141
15.000000	983.049805	24719.960938
15.000000	981.912109	24557.626953
15.000000	980.773438	24258.710938
15.000000	979.633789	24111.982422
15.000000	978.495117	24212.066406
15.000000	977.355469	24666.718750
15.000000	976.214844	24524.392578
15.000000	975.075195	24652.921875
15.000000	973.934570	24724.160156
15.000000	972.793945	24779.958984
15.000000	971.653320	24422.128906
15.000000	970.511719	24649.525391
15.000000	969.370117	24313.880859
15.000000	968.228516	24470.839844
15.000000	967.086914	24418.919922
15.000000	965.944336	23980.279297
15.000000	964.801758	24132.802734
15.000000	963.659180	24212.773438
15.000000	962.516602	24027.005859
15.000000	961.373047	23724.968750
15.000000	960.229492	23651.332031
15.000000	959.084961	23498.734375
15.000000	957.941406	23725.728516
15.000000	956.796875	23502.994141
15.000000	955.652344	23727.683594
15.000000	954.506836	23634.388672
15.000000	953.362305	24102.212891
15.000000	952.216797	24186.357422
15.000000	951.070313	24198.164063
15.000000	949.924805	24457.451172
15.000000	948.778320	24438.529297
15.000000	947.631836	24599.119141
15.000000	946.485352	24181.841797
15.000000	945.337891	24200.185547
15.000000	944.190430	23927.574219
15.000000	943.042969	23760.064453
15.000000	941.894531	23376.166016
15.000000	940.747070	23595.787109
15.000000	939.597656	23330.119141
15.000000	938.449219	23160.714844
15.000000	937.300781	23343.085938
15.000000	936.151367	22898.576172
15.000000	935.001953	23019.781250
15.000000	933.851563	22951.013672
15.000000	932.701172	23026.312500
15.000000	931.550781	23031.751953
15.000000	930.400391	22718.710938
15.000000	929.250000	22333.849609
15.000000	928.098633	22788.585938
15.000000	926.947266	22709.054688
15.000000	925.794922	22753.777344
15.000000	924.642578	23199.367188
15.000000	923.490234	23840.783203
15.000000	922.337891	24666.996094
15.000000	921.185547	25808.505859
15.000000	920.032227	27077.894531
15.000000	918.878906	27698.177734
15.000000	917.724609	28490.039063
15.000000	916.571289	28657.257813
15.000000	915.416992	28748.283203
15.000000	914.262695	28552.281250
15.000000	913.107422	28473.742188
15.000000	911.952148	28649.482422
15.000000	910.796875	28590.503906
15.000000	909.641602	28779.158203
15.000000	908.485352	28848.287109
15.000000	907.329102	28622.126953
15.000000	906.172852	27820.900391
15.000000	905.016602	27271.767578
15.000000	903.859375	26588.386719
15.000000	902.702148	26128.728516
15.000000	901.544922	24903.847656
15.000000	900.386719	24290.886719
15.000000	899.228516	23511.330078
15.000000	898.070313	23252.181641
15.000000	896.911133	23110.136719
15.000000	895.752930	23147.914063
15.000000	894.593750	22992.962891
15.000000	893.433594	22790.458984
15.000000	892.274414	22627.005859
15.000000	891.114258	22327.314453
15.000000	889.954102	21872.013672
15.000000	888.792969	21938.130859
15.000000	887.632813	21902.593750
15.000000	886.470703	22331.822266
15.000000	885.309570	22350.230469
15.000000	884.148438	22429.123047
15.000000	882.986328	22628.939453
15.000000	881.824219	22990.621094
15.000000	880.661133	23263.607422
15.000000	879.498047	23409.107422
15.000000	878.334961	23528.636719
15.000000	877.171875	23699.886719
15.000000	876.007813	23491.425781
15.000000	874.843750	23537.521484
15.000000	873.679688	22979.935547
15.000000	872.515625	22754.546875
15.000000	871.350586	22695.187500
15.000000	870.185547	22678.943359
15.000000	869.020508	22305.166016
15.000000	867.854492	22273.943359
15.000000	866.688477	22468.777344
15.000000	865.522461	22450.437500
15.000000	864.356445	22528.933594
15.000000	863.189453	22697.742188
15.000000	862.022461	22881.519531
15.000000	860.854492	22742.675781
15.000000	859.687500	23158.513672
15.000000	858.519531	23077.689453
15.000000	857.351563	22885.173828
15.000000	856.182617	22989.189453
15.000000	855.013672	23050.199219
15.000000	853.844727	23293.675781
15.000000	852.675781	23373.896484
15.000000	851.505859	23333.894531
15.000000	850.335938	23278.890625
15.000000	849.166016	23489.890625
15.000000	847.995117	23458.457031
15.000000	846.825195	23866.548828
15.000000	845.653320	24068.669922
15.000000	844.482422	24109.968750
15.000000	843.310547	23919.867188
15.000000	842.138672	24224.626953
15.000000	840.966797	24064.562500
15.000000	839.793945	24065.134766
15.000000	838.622070	24331.101563
15.000000	837.448242	24267.408203
15.000000	836.275391	24353.492188
15.000000	835.101563	24807.394531
15.000000	833.927734	25019.453125
15.000000	832.753906	25596.955078
15.000000	831.579102	25842.906250
15.000000	830.404297	26148.560547
15.000000	829.229492	26146.457031
15.000000	828.054688	26099.501953
15.000000	826.878906	25653.302734
15.000000	825.703125	25373.814453
15.000000	824.526367	25269.453125
15.000000	823.350586	24770.433594
15.000000	822.173828	24779.312500
15.000000	820.996094	24728.474609
15.000000	819.819336	24615.830078
15.000000	818.641602	24243.201172
15.000000	817.463867	24235.138672
15.000000	816.285156	23965.037109
15.000000	815.107422	23737.662109
15.000000	813.928711	24294.003906
15.000000	812.749023	24079.425781
15.000000	811.570313	24207.611328
15.000000	810.390625	24461.269531
15.000000	809.209961	24544.617188
15.000000	808.030273	25212.781250
15.000000	806.849609	24881.281250
15.000000	805.668945	24856.042969
15.000000	804.488281	24654.421875
15.000000	803.306641	24486.890625
15.000000	802.125000	24459.632813
15.000000	800.943359	24254.000000
15.000000	799.760742	24305.361328
15.000000	798.578125	23949.158203
15.000000	797.395508	23711.960938
15.000000	796.211914	23699.759766
15.000000	795.029297	23583.632813
15.000000	793.844727	23509.968750
15.000000	792.661133	23207.380859
15.000000	791.476563	23307.632813
15.000000	790.291992	23541.328125
15.000000	789.107422	23594.837891
15.000000	787.922852	23241.683594
15.000000	786.737305	23039.033203
15.000000	785.550781	23255.613281
15.000000	784.365234	22845.654297
15.000000	783.178711	22387.230469
15.000000	781.992188	22089.791016
15.000000	780.805664	21902.460938
15.000000	779.618164	21508.027344
15.000000	778.430664	21153.945313
15.000000	777.243164	20933.166016
15.000000	776.054688	20765.310547
15.000000	774.866211	20485.589844
15.000000	773.677734	20339.037109
15.000000	772.489258	20323.441406
15.000000	771.299805	20200.212891
15.000000	770.110352	20366.115234
15.000000	768.919922	20574.125000
15.000000	767.730469	20362.337891
15.000000	766.540039	20673.552734
15.000000	765.348633	21028.878906
15.000000	764.158203	21590.550781
15.000000	762.966797	22213.041016
15.000000	761.774414	23414.472656
15.000000	760.583008	24305.742188
15.000000	759.390625	24501.806641
15.000000	758.198242	24396.783203
15.000000	757.005859	23940.394531
15.000000	755.812500	23052.958984
15.000000	754.619141	22521.406250
15.000000	753.424805	22147.820313
15.000000	752.231445	21602.037109
15.000000	751.037109	21331.839844
15.000000	749.842773	21576.552734
15.000000	748.647461	21892.560547
15.000000	747.452148	21939.595703
15.000000	746.256836	22906.212891
15.000000	745.060547	22480.681641
15.000000	743.865234	22349.152344
15.000000	742.668945	22173.626953
15.000000	741.471680	21996.087891
15.000000	740.274414	21952.839844
15.000000	739.077148	22253.419922
15.000000	737.879883	22241.560547
15.000000	736.681641	22453.906250
15.000000	735.484375	23154.240234
15.000000	734.285156	23944.273438
15.000000	733.086914	25073.101563
15.000000	731.887695	26282.996094
15.000000	730.688477	27019.320313
15.000000	729.488281	26876.542969
15.000000	728.288086	26566.498047
15.000000	727.087891	26672.746094
15.000000	725.887695	26822.837891
15.000000	724.686523	27152.601563
15.000000	723.485352	27133.234375
15.000000	722.284180	27003.152344
15.000000	721.082031	25774.562500
15.000000	719.879883	24281.412109
15.000000	718.677734	22761.873047
15.000000	717.474609	21825.355469
15.000000	716.272461	21342.060547
15.000000	715.068359	20410.537109
15.000000	713.865234	20117.607422
15.000000	712.661133	20225.111328
15.000000	711.457031	19805.222656
15.000000	710.251953	19618.929688
15.000000	709.047852	19324.398438
15.000000	707.842773	19207.044922
15.000000	706.636719	19360.435547
15.000000	705.431641	19111.980469
15.000000	704.225586	19144.603516
15.000000	703.018555	19422.722656
15.000000	701.812500	18980.980469
15.000000	700.605469	19034.400391
15.000000	699.397461	19241.638672
15.000000	698.190430	19176.480469
15.000000	696.982422	19383.572266
15.000000	695.774414	19642.492188
15.000000	694.565430	19635.427734
15.000000	693.356445	19908.681641
15.000000	692.147461	19994.960938
15.000000	690.938477	19908.939453
15.000000	689.728516	19654.896484
15.000000	688.518555	19558.626953
15.000000	687.308594	19601.347656
15.000000	686.097656	19552.818359
15.000000	684.886719	19676.347656
15.000000	683.674805	20019.462891
15.000000	682.463867	20057.865234
15.000000	681.251953	20025.824219
15.000000	680.040039	20041.421875
15.000000	678.827148	19945.224609
15.000000	677.614258	20631.363281
15.000000	676.401367	20270.220703
15.000000	675.187500	20374.671875
15.000000	673.973633	20170.939453
15.000000	672.759766	20506.908203
15.000000	671.545898	20770.359375
15.000000	670.331055	20577.003906
15.000000	669.116211	20487.035156
15.000000	667.900391	20975.400391
15.000000	666.684570	20903.951172
15.000000	665.468750	21084.376953
15.000000	664.252930	21145.009766
15.000000	663.036133	21257.187500
15.000000	661.819336	21204.289063
15.000000	660.602539	21695.822266
15.000000	659.384766	21793.330078
15.000000	658.166992	21973.226563
15.000000	656.948242	22190.117188
15.000000	655.730469	22406.892578
15.000000	654.511719	22399.068359
15.000000	653.291992	22623.906250
15.000000	652.073242	22404.003906
15.000000	650.853516	22371.478516
15.000000	649.633789	22299.876953
15.000000	648.413086	22378.458984
15.000000	647.192383	22444.656250
15.000000	645.971680	22510.818359
15.000000	644.750000	22554.332031
15.000000	643.528320	22230.025391
15.000000	642.306641	22224.281250
15.000000	641.084961	22471.136719
15.000000	639.862305	22344.191406
15.000000	638.639648	22750.982422
15.000000	637.416016	22069.964844
15.000000	636.192383	22142.208984
15.000000	634.968750	22195.953125
15.000000	633.745117	22225.058594
15.000000	632.520508	22073.750000
15.000000	631.295898	22160.248047
15.000000	630.070313	22037.712891
15.000000	628.844727	22199.957031
15.000000	627.619141	21588.039063
15.000000	626.393555	21551.720703
15.000000	625.166992	21466.294922
15.000000	623.940430	21393.187500
15.000000	622.712891	21448.994141
15.000000	621.486328	21359.560547
15.000000	620.258789	21597.308594
15.000000	619.030273	21522.183594
15.000000	617.802734	20928.031250
15.000000	616.573242	20750.960938
15.000000	615.344727	20861.970703
15.000000	614.115234	20776.890625
20.000000	1722.566406	12612.942383
20.000000	1721.590820	12720.899414
20.000000	1720.613281	12808.269531
20.000000	1719.636719	12769.704102
20.000000	1718.659180	13016.293945
20.000000	1717.682617	12803.054688
20.000000	1716.705078	12743.966797
20.000000	1715.727539	12630.990234
20.000000	1714.749023	12579.660156
20.000000	1713.771484	12892.753906
20.000000	1712.792969	12897.834961
20.000000	1711.814453	12800.303711
20.000000	1710.835938	12851.562500
20.000000	1709.856445	12805.361328
20.000000	1708.877930	12905.304688
20.000000	1707.898438	13061.594727
20.000000	1706.918945	13020.500000
20.000000	1705.939453	12966.610352
20.000000	1704.958984	13063.873047
20.000000	1703.979492	13079.142578
20.000000	1702.999023	13030.390625
20.000000	1702.018555	12958.618164
20.000000	1701.038086	12958.539063
20.000000	1700.056641	13347.416016
20.000000	1699.076172	13288.411133
20.000000	1698.094727	13290.818359
20.000000	1697.113281	13252.305664
20.000000	1696.131836	13188.238281
20.000000	1695.149414	13482.083008
20.000000	1694.167969	13430.771484
20.000000	1693.185547	13448.471680
20.000000	1692.203125	13553.026367
20.000000	1691.219727	13803.128906
20.000000	1690.237305	13905.011719
20.000000	1689.253906	13598.339844
20.000000	1688.270508	13702.772461
20.000000	1687.287109	13705.075195
20.000000	1686.303711	13809.441406
20.000000	1685.320313	13865.291992
20.000000	1684.335938	13663.508789
20.000000	1683.351563	13989.670898
20.000000	1682.367188	13826.185547
20.000000	1681.382813	13894.726563
20.000000	1680.397461	13968.335938
20.000000	1679.412109	13932.350586
20.000000	1678.426758	14031.392578
20.000000	1677.441406	14051.439453
20.000000	1676.456055	13984.897461
20.000000	1675.469727	14032.946289
20.000000	1674.483398	14162.426758
20.000000	1673.497070	14403.825195
20.000000	1672.510742	14433.945313
20.000000	1671.524414	14637.029297
20.000000	1670.537109	14771.359375
20.000000	1669.549805	14618.302734
20.000000	1668.562500	14958.500000
20.000000	1667.575195	15273.139648
20.000000	1666.587891	15087.033203
20.000000	1665.599609	15337.997070
20.000000	1664.611328	15317.061523
20.000000	1663.623047	15793.897461
20.000000	1662.634766	15521.502930
20.000000	1661.646484	15703.623047
20.000000	1660.657227	15733.384766
20.000000	1659.667969	16128.536133
20.000000	1658.678711	16318.025391
20.000000	1657.689453	16274.079102
20.000000	1656.699219	16252.972656
20.000000	1655.708984	16518.376953
20.000000	1654.718750	16238.665039
20.000000	1653.728516	16767.537109
20.000000	1652.738281	16941.449219
20.000000	1651.747070	16798.617188
20.000000	1650.756836	16985.111328
20.000000	1649.765625	16971.474609
20.000000	1648.773438	17137.597656
20.000000	1647.782227	17151.777344
20.000000	1646.790039	17403.835938
20.000000	1645.798828	17726.634766
20.000000	1644.806641	17849.453125
20.000000	1643.813477	18207.431641
20.000000	1642.821289	18092.406250
20.000000	1641.828125	18768.724609
20.000000	1640.834961	18489.333984
20.000000	1639.841797	18899.945313
20.000000	1638.848633	19176.478516
20.000000	1637.854492	19601.929688
20.000000	1636.861328	19865.570313
20.000000	1635.867188	19959.927734
20.000000	1634.873047	20458.158203
20.000000	1633.877930	20607.875000
20.000000	1632.883789	21211.742188
20.000000	1631.888672	21790.128906
20.000000	1630.893555	21699.847656
20.000000	1629.898438	22401.457031
20.000000	1628.902344	22565.734375
20.000000	1627.907227	23420.638672
20.000000	1626.911133	23695.523438
20.000000	1625.915039	24494.398438
20.000000	1624.918945	25103.998047
20.000000	1623.921875	25816.609375
20.000000	1622.924805	27019.962891
20.000000	1621.928711	27971.050781
20.000000	1620.930664	28863.845703
20.000000	1619.933594	30372.833984
20.000000	1618.936523	31785.580078
20.000000	1617.938477	33119.753906
20.000000	1616.940430	34553.968750
20.000000	1615.942383	35540.003906
20.000000	1614.943359	36731.769531
20.000000	1613.945313	37367.562500
20.000000	1612.946289	37829.695313
20.000000	1611.947266	38083.101563
20.000000	1610.948242	38878.964844
20.000000	1609.948242	39139.574219
20.000000	1608.949219	39633.578125
20.000000	1607.949219	39886.382813
20.000000	1606.949219	39800.257813
20.000000	1605.948242	40218.523438
20.000000	1604.948242	40300.445313
20.000000	1603.947266	40663.246094
20.000000	1602.946289	41397.031250
20.000000	1601.945313	41774.484375
20.000000	1600.944336	42297.164063
20.000000	1599.942383	43516.324219
20.000000	1598.940430	45155.914063
20.000000	1597.938477	47676.597656
20.000000	1596.936523	49332.152344
20.000000	1595.934570	51873.437500
20.000000	1594.931641	54576.378906
20.000000	1593.928711	56962.812500
20.000000	1592.925781	59673.558594
20.000000	1591.922852	62901.066406
20.000000	1590.918945	64911.531250
20.000000	1589.915039	67458.835938
20.000000	1588.911133	70607.656250
20.000000	1587.907227	73207.687500
20.000000	1586.903320	75346.750000
20.000000	1585.898438	77295.000000
20.000000	1584.894531	77166.367188
20.000000	1583.889648	77377.468750
20.000000	1582.883789	76294.929688
20.000000	1581.878906	74988.125000
20.000000	1580.873047	72795.726563
20.000000	1579.867188	70903.718750
20.000000	1578.861328	68049.382813
20.000000	1577.855469	65655.250000
20.000000	1576.848633	63788.359375
20.000000	1575.842773	61944.691406
20.000000	1574.835938	59672.992188
20.000000	1573.828125	57791.074219
20.000000	1572.821289	55942.335938
20.000000	1571.813477	54752.113281
20.000000	1570.805664	53186.257813
20.000000	1569.797852	52330.820313
20.000000	1568.790039	50278.105469
20.000000	1567.782227	49139.843750
20.000000	1566.773438	47292.742188
20.000000	1565.764648	45854.496094
20.000000	1564.755859	44541.238281
20.000000	1563.747070	42987.265625
20.000000	1562.737305	41993.460938
20.000000	1561.727539	40758.910156
20.000000	1560.717773	40516.664063
20.000000	1559.708008	39837.125000
20.000000	1558.697266	39103.207031
20.000000	1557.687500	38608.074219
20.000000	1556.676758	38741.492188
20.000000	1555.666016	38167.175781
20.000000	1554.654297	38141.742188
20.000000	1553.643555	37885.488281
20.000000	1552.631836	37577.226563
20.000000	1551.620117	37199.625000
20.000000	1550.608398	37707.695313
20.000000	1549.596680	37223.582031
20.000000	1548.583984	36965.296875
20.000000	1547.571289	36888.074219
20.000000	1546.558594	36605.175781
20.000000	1545.545898	36520.621094
20.000000	1544.532227	36280.031250
20.000000	1543.518555	35635.824219
20.000000	1542.504883	35365.800781
20.000000	1541.491211	35271.664063
20.000000	1540.477539	34863.210938
20.000000	1539.462891	34935.019531
20.000000	1538.448242	35108.230469
20.000000	1537.433594	35400.105469
20.000000	1536.418945	35617.656250
20.000000	1535.404297	35464.222656
20.000000	1534.388672	35652.000000
20.000000	1533.373047	36252.437500
20.000000	1532.357422	35913.632813
20.000000	1531.340820	36229.648438
20.000000	1530.325195	36535.648438
20.000000	1529.308594	35871.023438
20.000000	1528.291992	36374.476563
20.000000	1527.275391	36307.511719
20.000000	1526.257813	36731.679688
20.000000	1525.240234	36960.742188
20.000000	1524.223633	37002.226563
20.000000	1523.205078	37460.496094
20.000000	1522.187500	38145.414063
20.000000	1521.168945	38369.039063
20.000000	1520.151367	39164.378906
20.000000	1519.132813	40119.554688
20.000000	1518.113281	40455.933594
20.000000	1517.094727	40676.402344
20.000000	1516.075195	41748.839844
20.000000	1515.055664	41454.351563
20.000000	1514.036133	41898.457031
20.000000	1513.016602	42019.972656
20.000000	1511.996094	41728.062500
20.000000	1510.975586	41940.578125
20.000000	1509.955078	42534.214844
20.000000	1508.934570	42945.632813
20.000000	1507.914063	43396.207031
20.000000	1506.892578	43937.527344
20.000000	1505.871094	44338.542969
20.000000	1504.849609	45090.714844
20.000000	1503.827148	45169.527344
20.000000	1502.805664	45655.964844
20.000000	1501.783203	45511.183594
20.000000	1500.760742	45918.781250
20.000000	1499.738281	46529.902344
20.000000	1498.714844	46556.773438
20.000000	1497.691406	46799.511719
20.000000	1496.668945	47532.675781
20.000000	1495.644531	47934.480469
20.000000	1494.621094	48238.046875
20.000000	1493.596680	48328.234375
20.000000	1492.573242	47661.152344
20.000000	1491.547852	47158.503906
20.000000	1490.523438	46861.824219
20.000000	1489.499023	46614.250000
20.000000	1488.473633	46606.726563
20.000000	1487.448242	46427.847656
20.000000	1486.422852	46332.253906
20.000000	1485.396484	46752.992188
20.000000	1484.371094	47065.906250
20.000000	1483.344727	47341.992188
20.000000	1482.318359	47764.675781
20.000000	1481.291992	48055.156250
20.000000	1480.264648	47927.539063
20.000000	1479.237305	47333.207031
20.000000	1478.209961	47174.027344
20.000000	1477.182617	47794.132813
20.000000	1476.155273	46694.671875
20.000000	1475.126953	46745.699219
20.000000	1474.098633	45759.214844
20.000000	1473.070313	45070.906250
20.000000	1472.041992	44787.945313
20.000000	1471.012695	44017.187500
20.000000	1469.983398	43432.125000
20.000000	1468.954102	42805.851563
20.000000	1467.924805	42316.375000
20.000000	1466.895508	40920.363281
20.000000	1465.865234	40704.429688
20.000000	1464.834961	40115.816406
20.000000	1463.804688	39476.296875
20.000000	1462.773438	39202.355469
20.000000	1461.743164	38702.085938
20.000000	1460.711914	38206.894531
20.000000	1459.680664	37918.792969
20.000000	1458.649414	37796.269531
20.000000	1457.617188	37992.492188
20.000000	1456.584961	37860.273438
20.000000	1455.552734	38207.156250
20.000000	1454.520508	38009.296875
20.000000	1453.488281	38302.515625
20.000000	1452.455078	38933.398438
20.000000	1451.421875	39034.343750
20.000000	1450.388672	40131.175781
20.000000	1449.355469	40345.960938
20.000000	1448.321289	40835.015625
20.000000	1447.288086	41678.277344
20.000000	1446.253906	42771.156250
20.000000	1445.218750	43603.921875
20.000000	1444.184570	44387.808594
20.000000	1443.149414	46027.531250
20.000000	1442.114258	46437.109375
20.000000	1441.079102	47869.601563
20.000000	1440.043945	48717.320313
20.000000	1439.007813	49930.593750
20.000000	1437.971680	50721.769531
20.000000	1436.935547	52110.902344
20.000000	1435.899414	53220.929688
20.000000	1434.862305	54010.867188
20.000000	1433.826172	55364.488281
20.000000	1432.789063	56175.394531
20.000000	1431.750977	56719.781250
20.000000	1430.713867	57341.335938
20.000000	1429.675781	58414.906250
20.000000	1428.637695	58511.089844
20.000000	1427.599609	58921.511719
20.000000	1426.561523	58981.277344
20.000000	1425.522461	58811.437500
20.000000	1424.483398	58008.671875
20.000000	1423.444336	57191.753906
20.000000	1422.405273	55759.367188
20.000000	1421.365234	53504.265625
20.000000	1420.326172	52232.605469
20.000000	1419.286133	50553.628906
20.000000	1418.245117	48609.957031
20.000000	1417.205078	47791.281250
20.000000	1416.164063	47884.632813
20.000000	1415.123047	47481.207031
20.000000	1414.082031	47564.933594
20.000000	1413.041016	47477.488281
20.000000	1411.999023	47638.285156
20.000000	1410.957031	47656.859375
20.000000	1409.915039	48301.687500
20.000000	1408.873047	48792.105469
20.000000	1407.831055	49479.734375
20.000000	1406.788086	51101.031250
20.000000	1405.745117	52642.199219
20.000000	1404.702148	53771.250000
20.000000	1403.658203	54974.382813
20.000000	1402.614258	55061.046875
20.000000	1401.571289	55126.027344
20.000000	1400.526367	55590.039063
20.000000	1399.482422	55181.378906
20.000000	1398.437500	55263.097656
20.000000	1397.393555	55873.312500
20.000000	1396.347656	55861.160156
20.000000	1395.302734	56413.332031
20.000000	1394.257813	56593.128906
20.000000	1393.211914	56554.410156
20.000000	1392.166016	57852.402344
20.000000	1391.120117	58178.109375
20.000000	1390.073242	58251.796875
20.000000	1389.026367	59335.113281
20.000000	1387.979492	59633.894531
20.000000	1386.932617	60572.593750
20.000000	1385.885742	60722.371094
20.000000	1384.837891	62204.343750
20.000000	1383.790039	61584.691406
20.000000	1382.742188	61281.457031
20.000000	1381.694336	61052.582031
20.000000	1380.645508	60074.457031
20.000000	1379.596680	58551.023438
20.000000	1378.547852	56920.562500
20.000000	1377.499023	55728.636719
20.000000	1376.450195	54518.089844
20.000000	1375.400391	53877.238281
20.000000	1374.350586	52564.804688
20.000000	1373.300781	52694.363281
20.000000	1372.250000	51397.089844
20.000000	1371.199219	51486.218750
20.000000	1370.148438	50849.089844
20.000000	1369.097656	50460.625000
20.000000	1368.046875	50900.890625
20.000000	1366.995117	50259.519531
20.000000	1365.943359	51219.945313
20.000000	1364.891602	51643.042969
20.000000	1363.839844	52063.562500
20.000000	1362.787109	52178.589844
20.000000	1361.735352	51566.238281
20.000000	1360.682617	50885.003906
20.000000	1359.628906	50673.644531
20.000000	1358.576172	50042.941406
20.000000	1357.522461	49364.863281
20.000000	1356.468750	49144.429688
20.000000	1355.415039	48509.703125
20.000000	1354.360352	47334.753906
20.000000	1353.306641	46012.726563
20.000000	1352.251953	44776.953125
20.000000	1351.196289	43544.097656
20.000000	1350.141602	42906.515625
20.000000	1349.085938	42319.152344
20.000000	1348.030273	41349.203125
20.000000	1346.974609	41152.320313
20.000000	1345.918945	40936.507813
20.000000	1344.862305	41540.617188
20.000000	1343.806641	40923.296875
20.000000	1342.749023	41731.414063
20.000000	1341.692383	41358.914063
20.000000	1340.635742	41138.523438
20.000000	1339.578125	40723.582031
20.000000	1338.520508	40954.332031
20.000000	1337.462891	40262.003906
20.000000	1336.404297	40101.339844
20.000000	1335.345703	39319.375000
20.000000	1334.287109	38530.632813
20.000000	1333.228516	37720.902344
20.000000	1332.169922	37214.894531
20.000000	1331.110352	36377.367188
20.000000	1330.050781	35722.617188
20.000000	1328.991211	35061.050781
20.000000	1327.930664	34781.019531
20.000000	1326.871094	34865.695313
20.000000	1325.810547	34919.562500
20.000000	1324.750000	34301.335938
20.000000	1323.688477	34005.144531
20.000000	1322.627930	34149.039063
20.000000	1321.566406	33777.328125
20.000000	1320.504883	33871.554688
20.000000	1319.443359	33897.183594
20.000000	1318.380859	33511.585938
20.000000	1317.318359	33686.132813
20.000000	1316.255859	34023.593750
20.000000	1315.193359	33796.449219
20.000000	1314.129883	34792.515625
20.000000	1313.067383	34997.300781
20.000000	1312.003906	35626.828125
20.000000	1310.939453	35689.753906
20.000000	1309.875977	36323.562500
20.000000	1308.811523	37063.226563
20.000000	1307.747070	37592.687500
20.000000	1306.682617	37683.402344
20.000000	1305.617188	37741.078125
20.000000	1304.552734	37897.699219
20.000000	1303.487305	37886.968750
20.000000	1302.421875	37716.066406
20.000000	1301.355469	37891.417969
20.000000	1300.290039	37899.523438
20.000000	1299.223633	37483.917969
20.000000	1298.157227	37466.214844
20.000000	1297.089844	37568.511719
20.000000	1296.023438	37499.039063
20.000000	1294.956055	37288.484375
20.000000	1293.888672	37002.777344
20.000000	1292.820313	37086.269531
20.000000	1291.752930	36624.453125
20.000000	1290.684570	36529.402344
20.000000	1289.616211	36112.546875
20.000000	1288.546875	36055.222656
20.000000	1287.478516	35584.640625
20.000000	1286.409180	35100.175781
20.000000	1285.339844	34897.582031
20.000000	1284.270508	34176.468750
20.000000	1283.200195	33727.820313
20.000000	1282.129883	33333.320313
20.000000	1281.059570	33175.843750
20.000000	1279.989258	33358.390625
20.000000	1278.918945	33095.492188
20.000000	1277.847656	32806.925781
20.000000	1276.776367	32837.132813
20.000000	1275.705078	33050.035156
20.000000	1274.632813	32974.781250
20.000000	1273.561523	32773.121094
20.000000	1272.489258	33182.523438
20.000000	1271.416016	33348.343750
20.000000	1270.343750	33525.785156
20.000000	1269.270508	33534.710938
20.000000	1268.197266	33564.679688
20.000000	1267.124023	33608.660156
20.000000	1266.050781	33192.070313
20.000000	1264.976563	33923.269531
20.000000	1263.902344	33847.960938
20.000000	1262.828125	34272.632813
20.000000	1261.753906	34743.832031
20.000000	1260.678711	35298.882813
20.000000	1259.603516	35937.730469
20.000000	1258.528320	36660.324219
20.000000	1257.452148	37529.609375
20.000000	1256.376953	38564.156250
20.000000	1255.300781	38415.609375
20.000000	1254.224609	38873.468750
20.000000	1253.147461	38654.964844
20.000000	1252.071289	38333.992188
20.000000	1250.994141	38355.742188
20.000000	1249.916992	37955.750000
20.000000	1248.839844	37565.253906
20.000000	1247.761719	37165.609375
20.000000	1246.683594	36794.082031
20.000000	1245.605469	36452.976563
20.000000	1244.527344	36440.187500
20.000000	1243.448242	35736.316406
20.000000	1242.369141	35374.730469
20.000000	1241.290039	35204.023438
20.000000	1240.210938	34854.339844
20.000000	1239.130859	34351.367188
20.000000	1238.050781	33741.703125
20.000000	1236.970703	33469.253906
20.000000	1235.890625	33387.429688
20.000000	1234.810547	33470.554688
20.000000	1233.729492	32963.796875
20.000000	1232.648438	32624.421875
20.000000	1231.566406	32452.322266
20.000000	1230.485352	32062.156250
20.000000	1229.403320	31421.585938
20.000000	1228.321289	31442.388672
20.000000	1227.239258	31460.861328
20.000000	1226.156250	31034.156250
20.000000	1225.073242	31126.884766
20.000000	1223.990234	31462.910156
20.000000	1222.907227	31351.597656
20.000000	1221.823242	31013.314453
20.000000	1220.740234	31363.025391
20.000000	1219.656250	31441.669922
20.000000	1218.571289	31788.808594
20.000000	1217.487305	32142.730469
20.000000	1216.402344	32521.945313
20.000000	1215.317383	32880.167969
20.000000	1214.232422	32995.371094
20.000000	1213.146484	32997.218750
20.000000	1212.060547	32606.050781
20.000000	1210.974609	32723.542969
20.000000	1209.888672	32716.197266
20.000000	1208.802734	32290.691406
20.000000	1207.715820	32234.935547
20.000000	1206.628906	31996.771484
20.000000	1205.541992	32402.841797
20.000000	1204.454102	31977.777344
20.000000	1203.366211	31885.207031
20.000000	1202.278320	31728.074219
20.000000	1201.190430	32615.917969
20.000000	1200.101563	32834.582031
20.000000	1199.013672	33853.191406
20.000000	1197.924805	34613.167969
20.000000	1196.834961	34939.542969
20.000000	1195.746094	35652.847656
20.000000	1194.656250	35697.804688
20.000000	1193.566406	36511.941406
20.000000	1192.476563	37645.757813
20.000000	1191.385742	38178.242188
20.000000	1190.294922	39069.511719
20.000000	1189.204102	40100.730469
20.000000	1188.113281	41711.191406
20.000000	1187.021484	43925.792969
20.000000	1185.930664	46132.492188
20.000000	1184.838867	47630.144531
20.000000	1183.746094	49752.265625
20.000000	1182.654297	51294.375000
20.000000	1181.561523	53819.031250
20.000000	1180.468750	56732.996094
20.000000	1179.375977	60497.554688
20.000000	1178.282227	65054.742188
20.000000	1177.188477	69887.585938
20.000000	1176.094727	73733.812500
20.000000	1175.000977	77745.765625
20.000000	1173.906250	82405.015625
20.000000	1172.811523	85844.484375
20.000000	1171.716797	86875.109375
20.000000	1170.622070	83985.734375
20.000000	1169.526367	78595.218750
20.000000	1168.431641	73307.937500
20.000000	1167.334961	68327.695313
20.000000	1166.239258	62621.457031
20.000000	1165.143555	59603.421875
20.000000	1164.046875	56916.359375
20.000000	1162.950195	54447.917969
20.000000	1161.852539	51994.320313
20.000000	1160.755859	49843.769531
20.000000	1159.658203	48149.289063
20.000000	1158.560547	46393.839844
20.000000	1157.461914	45041.500000
20.000000	1156.364258	43417.804688
20.000000	1155.265625	42103.304688
20.000000	1154.166992	40499.281250
20.000000	1153.067383	39453.234375
20.000000	1151.967773	38592.609375
20.000000	1150.869141	37609.097656
20.000000	1149.768555	37178.343750
20.000000	1148.668945	37017.027344
20.000000	1147.568359	36394.968750
20.000000	1146.467773	35713.890625
20.000000	1145.367188	34693.367188
20.000000	1144.266602	34357.210938
20.000000	1143.165039	33405.828125
20.000000	1142.063477	32675.904297
20.000000	1140.961914	32007.818359
20.000000	1139.859375	31000.667969
20.000000	1138.757813	30570.078125
20.000000	1137.655273	30151.064453
20.000000	1136.551758	29570.638672
20.000000	1135.449219	29477.439453
20.000000	1134.345703	28929.273438
20.000000	1133.242188	29382.140625
20.000000	1132.138672	29188.984375
20.000000	1131.034180	29198.251953
20.000000	1129.929688	29034.769531
20.000000	1128.825195	29291.757813
20.000000	1127.720703	29430.486328
20.000000	1126.616211	28964.957031
20.000000	1125.510742	29237.673828
20.000000	1124.405273	29567.021484
20.000000	1123.298828	29564.820313
20.000000	1122.193359	29655.658203
20.000000	1121.086914	29925.687500
20.000000	1119.980469	29857.615234
20.000000	1118.873047	29735.144531
20.000000	1117.766602	29209.154297
20.000000	1116.659180	28767.269531
20.000000	1115.551758	28316.519531
20.000000	1114.443359	28559.279297
20.000000	1113.335938	27812.037109
20.000000	1112.227539	27712.830078
20.000000	1111.118164	27437.062500
20.000000	1110.009766	27233.853516
20.000000	1108.900391	26980.945313
20.000000	1107.791016	26841.281250
20.000000	1106.681641	26253.785156
20.000000	1105.572266	25910.802734
20.000000	1104.461914	25565.716797
20.000000	1103.351563	25130.363281
20.000000	1102.241211	24998.048828
20.000000	1101.129883	24617.246094
20.000000	1100.018555	24186.919922
20.000000	1098.907227	23783.888672
20.000000	1097.795898	23728.763672
20.000000	1096.683594	23549.503906
20.000000	1095.572266	23492.195313
20.000000	1094.458984	23188.964844
20.000000	1093.346680	23255.835938
20.000000	1092.234375	23478.292969
20.000000	1091.121094	23711.917969
20.000000	1090.006836	23713.240234
20.000000	1088.893555	23646.943359
20.000000	1087.779297	23472.517578
20.000000	1086.666016	23500.919922
20.000000	1085.550781	23545.070313
20.000000	1084.436523	23944.974609
20.000000	1083.321289	24164.593750
20.000000	1082.206055	24654.195313
20.000000	1081.090820	25168.318359
20.000000	1079.974609	25688.955078
20.000000	1078.859375	25858.480469
20.000000	1077.743164	25841.287109
20.000000	1076.625977	26177.054688
20.000000	1075.509766	25894.576172
20.000000	1074.392578	25821.203125
20.000000	1073.275391	25774.820313
20.000000	1072.158203	25070.363281
20.000000	1071.040039	25147.673828
20.000000	1069.921875	24502.050781
20.000000	1068.803711	24101.373047
20.000000	1067.685547	23786.148438
20.000000	1066.566406	23740.283203
20.000000	1065.447266	23360.236328
20.000000	1064.328125	23866.121094
20.000000	1063.208008	23757.486328
20.000000	1062.088867	23467.347656
20.000000	1060.968750	23553.806641
20.000000	1059.847656	23371.380859
20.000000	1058.727539	23542.931641
20.000000	1057.606445	23347.150391
20.000000	1056.485352	23061.906250
20.000000	1055.364258	23193.113281
20.000000	1054.242188	22847.611328
20.000000	1053.120117	22609.656250
20.000000	1051.998047	22635.742188
20.000000	1050.875977	22664.048828
20.000000	1049.752930	22488.892578
20.000000	1048.629883	22421.103516
20.000000	1047.506836	22006.970703
20.000000	1046.383789	21997.408203
20.000000	1045.259766	21659.503906
20.000000	1044.135742	21230.195313
20.000000	1043.011719	20975.226563
20.000000	1041.886719	21064.113281
20.000000	1040.762695	20876.244141
20.000000	1039.637695	20775.468750
20.000000	1038.511719	21098.539063
20.000000	1037.386719	21207.375000
20.000000	1036.260742	21226.980469
20.000000	1035.134766	21061.568359
20.000000	1034.007813	21277.296875
20.000000	1032.881836	21428.312500
20.000000	1031.754883	21650.533203
20.000000	1030.627930	21469.580078
20.000000	1029.500000	21760.701172
20.000000	1028.372070	22062.814453
20.000000	1027.245117	22053.236328
20.000000	1026.116211	22695.535156
20.000000	1024.988281	22910.464844
20.000000	1023.859375	23590.066406
20.000000	1022.730469	24075.923828
20.000000	1021.601563	23859.158203
20.000000	1020.471680	23889.160156
20.000000	1019.341797	23250.406250
20.000000	1018.211914	22894.039063
20.000000	1017.082031	22500.085938
20.000000	1015.951172	22386.054688
20.000000	1014.820313	22334.224609
20.000000	1013.689453	22158.144531
20.000000	1012.557617	21813.527344
20.000000	1011.426758	22008.070313
20.000000	1010.293945	21747.914063
20.000000	1009.162109	21869.212891
20.000000	1008.030273	21930.605469
20.000000	1006.897461	21943.212891
20.000000	1005.764648	22090.960938
20.000000	1004.630859	22395.902344
20.000000	1003.498047	22964.220703
20.000000	1002.364258	23116.046875
20.000000	1001.230469	23121.710938
20.000000	1000.095703	23532.337891
20.000000	998.960938	23110.900391
20.000000	997.826172	23282.445313
20.000000	996.691406	22949.714844
20.000000	995.556641	22928.867188
20.000000	994.420898	23202.003906
20.000000	993.285156	23315.902344
20.000000	992.148438	23266.255859
20.000000	991.012695	23598.750000
20.000000	989.875977	23699.218750
20.000000	988.739258	23932.101563
20.000000	987.601563	23906.625000
20.000000	986.463867	23945.154297
20.000000	985.326172	24109.416016
20.000000	984.188477	23854.515625
20.000000	983.049805	24029.742188
20.000000	981.912109	24368.027344
20.000000	980.773438	24721.580078
20.000000	979.633789	24995.632813
20.000000	978.495117	25042.636719
20.000000	977.355469	25257.009766
20.000000	976.214844	25055.089844
20.000000	975.075195	24875.277344
20.000000	973.934570	24741.767578
20.000000	972.793945	24821.767578
20.000000	971.653320	25218.527344
20.000000	970.511719	24889.269531
20.000000	969.370117	24747.074219
20.000000	968.228516	24673.095703
20.000000	967.086914	24766.191406
20.000000	965.944336	24514.248047
20.000000	964.801758	24561.197266
20.000000	963.659180	24482.927734
20.000000	962.516602	24261.960938
20.000000	961.373047	24021.337891
20.000000	960.229492	24333.919922
20.000000	959.084961	24455.447266
20.000000	957.941406	24438.707031
20.000000	956.796875	24288.181641
20.000000	955.652344	24304.375000
20.000000	954.506836	24430.167969
20.000000	953.362305	24150.431641
20.000000	952.216797	24100.900391
20.000000	951.070313	24469.808594
20.000000	949.924805	24363.275391
20.000000	948.778320	24497.648438
20.000000	947.631836	24244.482422
20.000000	946.485352	24289.082031
20.000000	945.337891	24381.796875
20.000000	944.190430	24334.460938
20.000000	943.042969	23746.943359
20.000000	941.894531	23760.996094
20.000000	940.747070	23320.349609
20.000000	939.597656	22855.867188
20.000000	938.449219	22454.968750
20.000000	937.300781	22530.468750
20.000000	936.151367	22514.203125
20.000000	935.001953	22242.484375
20.000000	933.851563	21879.208984
20.000000	932.701172	21830.367188
20.000000	931.550781	21973.548828
20.000000	930.400391	21846.173828
20.000000	929.250000	21758.111328
20.000000	928.098633	21687.529297
20.000000	926.947266	22386.445313
20.000000	925.794922	22915.042969
20.000000	924.642578	23591.542969
20.000000	923.490234	24400.587891
20.000000	922.337891	25246.267578
20.000000	921.185547	26507.386719
20.000000	920.032227	27604.650391
20.000000	918.878906	28690.507813
20.000000	917.724609	29464.726563
20.000000	916.571289	30155.917969
20.000000	915.416992	30414.029297
20.000000	914.262695	30524.177734
20.000000	913.107422	30475.597656
20.000000	911.952148	30198.867188
20.000000	910.796875	30398.048828
20.000000	909.641602	30538.488281
20.000000	908.485352	30029.580078
20.000000	907.329102	30037.603516
20.000000	906.172852	29370.605469
20.000000	905.016602	28612.787109
20.000000	903.859375	27965.968750
20.000000	902.702148	27492.966797
20.000000	901.544922	26796.843750
20.000000	900.386719	26350.355469
20.000000	899.228516	25765.367188
20.000000	898.070313	25065.814453
20.000000	896.911133	24544.228516
20.000000	895.752930	24469.042969
20.000000	894.593750	24393.890625
20.000000	893.433594	24078.484375
20.000000	892.274414	23038.208984
20.000000	891.114258	22738.417969
20.000000	889.954102	22395.505859
20.000000	888.792969	22467.986328
20.000000	887.632813	22187.998047
20.000000	886.470703	22288.589844
20.000000	885.309570	22296.203125
20.000000	884.148438	22385.910156
20.000000	882.986328	22173.162109
20.000000	881.824219	22044.736328
20.000000	880.661133	21480.244141
20.000000	879.498047	21345.566406
20.000000	878.334961	21174.263672
20.000000	877.171875	20914.583984
20.000000	876.007813	20887.978516
20.000000	874.843750	20984.298828
20.000000	873.679688	20731.312500
20.000000	872.515625	20982.808594
20.000000	871.350586	20988.523438
20.000000	870.185547	20970.537109
20.000000	869.020508	21213.167969
20.000000	867.854492	21048.705078
20.000000	866.688477	21577.517578
20.000000	865.522461	21763.861328
20.000000	864.356445	22068.457031
20.000000	863.189453	22263.191406
20.000000	862.022461	22595.474609
20.000000	860.854492	22658.818359
20.000000	859.687500	23035.980469
20.000000	858.519531	23140.015625
20.000000	857.351563	22616.593750
20.000000	856.182617	22847.412109
20.000000	855.013672	22837.585938
20.000000	853.844727	22926.525391
20.000000	852.675781	22744.953125
20.000000	851.505859	22906.832031
20.000000	850.335938	23343.255859
20.000000	849.166016	23078.050781
20.000000	847.995117	23383.400391
20.000000	846.825195	23857.974609
20.000000	845.653320	23742.867188
20.000000	844.482422	23872.105469
20.000000	843.310547	23904.871094
20.000000	842.138672	23909.771484
20.000000	840.966797	23505.667969
20.000000	839.793945	23570.601563
20.000000	838.622070	23543.466797
20.000000	837.448242	23877.964844
20.000000	836.275391	23917.080078
20.000000	835.101563	24155.074219
20.000000	833.927734	24249.689453
20.000000	832.753906	24744.007813
20.000000	831.579102	25139.769531
20.000000	830.404297	25125.095703
20.000000	829.229492	25112.560547
20.000000	828.054688	25093.623047
20.000000	826.878906	24707.451172
20.000000	825.703125	24912.744141
20.000000	824.526367	24725.267578
20.000000	823.350586	24510.140625
20.000000	822.173828	24433.763672
20.000000	820.996094	24357.419922
20.000000	819.819336	24359.994141
20.000000	818.641602	24298.619141
20.000000	817.463867	24665.587891
20.000000	816.285156	25126.113281
20.000000	815.107422	25185.990234
20.000000	813.928711	25563.109375
20.000000	812.749023	25573.878906
20.000000	811.570313	25252.619141
20.000000	810.390625	25227.279297
20.000000	809.209961	24904.128906
20.000000	808.030273	24672.583984
20.000000	806.849609	24779.220703
20.000000	805.668945	24996.339844
20.000000	804.488281	24386.646484
20.000000	803.306641	24408.277344
20.000000	802.125000	24043.298828
20.000000	800.943359	23982.175781
20.000000	799.760742	23662.058594
20.000000	798.578125	23577.705078
20.000000	797.395508	23272.693359
20.000000	796.211914	23126.943359
20.000000	795.029297	22981.261719
20.000000	793.844727	22610.876953
20.000000	792.661133	22395.429688
20.000000	791.476563	22266.982422
20.000000	790.291992	22424.650391
20.000000	789.107422	22116.187500
20.000000	787.922852	22180.623047
20.000000	786.737305	22124.332031
20.000000	785.550781	22097.701172
20.000000	784.365234	22183.246094
20.000000	783.178711	21835.007813
20.000000	781.992188	21567.318359
20.000000	780.805664	21172.873047
20.000000	779.618164	20806.103516
20.000000	778.430664	21005.986328
20.000000	777.243164	20903.582031
20.000000	776.054688	20864.605469
20.000000	774.866211	20688.355469
20.000000	773.677734	20795.144531
20.000000	772.489258	20610.548828
20.000000	771.299805	20130.564453
20.000000	770.110352	20302.814453
20.000000	768.919922	20190.193359
20.000000	767.730469	20252.669922
20.000000	766.540039	20414.210938
20.000000	765.348633	21003.583984
20.000000	764.158203	21459.890625
20.000000	762.966797	22307.851563
20.000000	761.774414	23191.197266
20.000000	760.583008	24573.185547
20.000000	759.390625	24807.080078
20.000000	758.198242	24188.408203
20.000000	757.005859	23065.013672
20.000000	755.812500	22581.716797
20.000000	754.619141	22025.042969
20.000000	753.424805	21535.931641
20.000000	752.231445	21486.416016
20.000000	751.037109	21493.667969
20.000000	749.842773	21656.396484
20.000000	748.647461	22060.609375
20.000000	747.452148	22601.123047
20.000000	746.256836	22700.457031
20.000000	745.060547	23561.685547
20.000000	743.865234	23276.695313
20.000000	742.668945	22664.556641
20.000000	741.471680	22757.466797
20.000000	740.274414	23041.150391
20.000000	739.077148	23997.636719
20.000000	737.879883	24446.433594
20.000000	736.681641	25081.490234
20.000000	735.484375	25879.623047
20.000000	734.285156	26855.367188
20.000000	733.086914	28148.875000
20.000000	731.887695	28995.863281
20.000000	730.688477	29066.017578
20.000000	729.488281	28454.070313
20.000000	728.288086	27886.351563
20.000000	727.087891	27494.570313
20.000000	725.887695	27021.449219
20.000000	724.686523	27443.126953
20.000000	723.485352	27768.466797
20.000000	722.284180	27517.058594
20.000000	721.082031	26146.322266
20.000000	719.879883	24423.396484
20.000000	718.677734	22699.248047
20.000000	717.474609	21485.181641
20.000000	716.272461	20680.664063
20.000000	715.068359	20481.458984
20.000000	713.865234	19977.886719
20.000000	712.661133	19820.650391
20.000000	711.457031	19471.732422
20.000000	710.251953	19125.070313
20.000000	709.047852	19066.072266
20.000000	707.842773	19100.826172
20.000000	706.636719	18775.333984
20.000000	705.431641	19062.019531
20.000000	704.225586	18526.500000
20.000000	703.018555	18867.193359
20.000000	701.812500	18696.005859
20.000000	700.605469	18834.759766
20.000000	699.397461	18807.115234
20.000000	698.190430	18804.425781
20.000000	696.982422	18687.443359
20.000000	695.774414	18996.398438
20.000000	694.565430	19166.039063
20.000000	693.356445	19593.064453
20.000000	692.147461	19361.814453
20.000000	690.938477	19327.837891
20.000000	689.728516	19335.373047
20.000000	688.518555	19564.849609
20.000000	687.308594	19452.035156
20.000000	686.097656	19492.693359
20.000000	684.886719	19817.292969
20.000000	683.674805	20139.650391
20.000000	682.463867	20244.314453
20.000000	681.251953	20174.947266
20.000000	680.040039	20304.390625
20.000000	678.827148	20210.195313
20.000000	677.614258	20184.339844
20.000000	676.401367	20139.873047
20.000000	675.187500	20329.166016
20.000000	673.973633	20549.376953
20.000000	672.759766	20817.023438
20.000000	671.545898	20877.839844
20.000000	670.331055	20932.421875
20.000000	669.116211	21053.078125
20.000000	667.900391	20998.119141
20.000000	666.684570	21159.986328
20.000000	665.468750	21270.160156
20.000000	664.252930	20930.380859
20.000000	663.036133	21059.119141
20.000000	661.819336	21002.148438
20.000000	660.602539	20996.755859
20.000000	659.384766	21486.148438
20.000000	658.166992	21732.080078
20.000000	656.948242	22074.726563
20.000000	655.730469	22198.830078
20.000000	654.511719	22504.103516
20.000000	653.291992	22842.158203
20.000000	652.073242	22698.359375
20.000000	650.853516	22756.306641
20.000000	649.633789	22824.507813
20.000000	648.413086	23219.707031
20.000000	647.192383	23096.507813
20.000000	645.971680	23370.134766
20.000000	644.750000	22885.228516
20.000000	643.528320	22540.289063
20.000000	642.306641	22123.626953
20.000000	641.084961	22302.736328
20.000000	639.862305	22227.164063
20.000000	638.639648	22225.517578
20.000000	637.416016	21819.613281
20.000000	636.192383	22181.187500
20.000000	634.968750	22074.943359
20.000000	633.745117	22036.416016
20.000000	632.520508	22436.589844
20.000000	631.295898	22955.419922
20.000000	630.070313	23035.515625
20.000000	628.844727	22986.521484
20.000000	627.619141	22790.103516
20.000000	626.393555	22591.738281
20.000000	625.166992	22235.873047
20.000000	623.940430	22311.939453
20.000000	622.712891	22136.343750
20.000000	621.486328	22181.710938
20.000000	620.258789	22274.076172
20.000000	619.030273	21998.455078
20.000000	617.802734	21641.230469
20.000000	616.573242	20920.531250
20.000000	615.344727	21201.023438
20.000000	614.115234	20872.861328
