#Time		#Wave		#Intensity
0.000000	1722.566406	18959.255859
0.000000	1721.590820	19116.048828
0.000000	1720.613281	19202.125000
0.000000	1719.636719	19208.511719
0.000000	1718.659180	19222.603516
0.000000	1717.682617	19285.482422
0.000000	1716.705078	19011.955078
0.000000	1715.727539	19359.816406
0.000000	1714.749023	19309.687500
0.000000	1713.771484	19508.501953
0.000000	1712.792969	19363.429688
0.000000	1711.814453	19492.888672
0.000000	1710.835938	19401.730469
0.000000	1709.856445	19484.970703
0.000000	1708.877930	19357.957031
0.000000	1707.898438	19687.226563
0.000000	1706.918945	19519.218750
0.000000	1705.939453	19548.554688
0.000000	1704.958984	19342.216797
0.000000	1703.979492	19622.554688
0.000000	1702.999023	19659.529297
0.000000	1702.018555	19486.568359
0.000000	1701.038086	19508.193359
0.000000	1700.056641	19831.763672
0.000000	1699.076172	19976.111328
0.000000	1698.094727	19777.638672
0.000000	1697.113281	19886.130859
0.000000	1696.131836	19833.494141
0.000000	1695.149414	19901.025391
0.000000	1694.167969	19804.957031
0.000000	1693.185547	19803.468750
0.000000	1692.203125	19865.849609
0.000000	1691.219727	20155.531250
0.000000	1690.237305	20082.462891
0.000000	1689.253906	19973.677734
0.000000	1688.270508	19984.912109
0.000000	1687.287109	20192.654297
0.000000	1686.303711	20318.658203
0.000000	1685.320313	20554.306641
0.000000	1684.335938	20652.125000
0.000000	1683.351563	20420.941406
0.000000	1682.367188	20712.507813
0.000000	1681.382813	20517.089844
0.000000	1680.397461	20732.058594
0.000000	1679.412109	20513.781250
0.000000	1678.426758	20621.664063
0.000000	1677.441406	20925.615234
0.000000	1676.456055	21094.480469
0.000000	1675.469727	21227.632813
0.000000	1674.483398	21378.544922
0.000000	1673.497070	21178.205078
0.000000	1672.510742	21402.845703
0.000000	1671.524414	21599.412109
0.000000	1670.537109	21691.619141
0.000000	1669.549805	21575.283203
0.000000	1668.562500	21903.880859
0.000000	1667.575195	21746.876953
0.000000	1666.587891	21945.701172
0.000000	1665.599609	22154.603516
0.000000	1664.611328	22338.015625
0.000000	1663.623047	22506.113281
0.000000	1662.634766	22420.230469
0.000000	1661.646484	22570.468750
0.000000	1660.657227	22682.570313
0.000000	1659.667969	23162.566406
0.000000	1658.678711	23122.277344
0.000000	1657.689453	23361.013672
0.000000	1656.699219	23328.302734
0.000000	1655.708984	23338.705078
0.000000	1654.718750	23774.966797
0.000000	1653.728516	23934.798828
0.000000	1652.738281	24081.892578
0.000000	1651.747070	24233.988281
0.000000	1650.756836	24530.390625
0.000000	1649.765625	24788.685547
0.000000	1648.773438	24568.363281
0.000000	1647.782227	25056.882813
0.000000	1646.790039	25256.693359
0.000000	1645.798828	25484.251953
0.000000	1644.806641	25430.917969
0.000000	1643.813477	25617.875000
0.000000	1642.821289	26161.291016
0.000000	1641.828125	26128.068359
0.000000	1640.834961	26764.667969
0.000000	1639.841797	26903.169922
0.000000	1638.848633	27524.183594
0.000000	1637.854492	27733.193359
0.000000	1636.861328	28121.425781
0.000000	1635.867188	28469.095703
0.000000	1634.873047	29268.494141
0.000000	1633.877930	29842.929688
0.000000	1632.883789	30449.927734
0.000000	1631.888672	31351.849609
0.000000	1630.893555	32384.556641
0.000000	1629.898438	32909.941406
0.000000	1628.902344	33788.089844
0.000000	1627.907227	35107.011719
0.000000	1626.911133	36478.304688
0.000000	1625.915039	38458.800781
0.000000	1624.918945	40262.128906
0.000000	1623.921875	42681.781250
0.000000	1622.924805	45518.441406
0.000000	1621.928711	49219.984375
0.000000	1620.930664	53441.031250
0.000000	1619.933594	58000.058594
0.000000	1618.936523	62345.832031
0.000000	1617.938477	67039.453125
0.000000	1616.940430	69721.609375
0.000000	1615.942383	71542.679688
0.000000	1614.943359	72266.890625
0.000000	1613.945313	72030.648438
0.000000	1612.946289	70384.742188
0.000000	1611.947266	68330.000000
0.000000	1610.948242	65967.140625
0.000000	1609.948242	63070.343750
0.000000	1608.949219	60360.546875
0.000000	1607.949219	58455.179688
0.000000	1606.949219	55918.128906
0.000000	1605.948242	54057.128906
0.000000	1604.948242	52598.300781
0.000000	1603.947266	52027.984375
0.000000	1602.946289	50715.625000
0.000000	1601.945313	50253.738281
0.000000	1600.944336	50330.968750
0.000000	1599.942383	50663.789063
0.000000	1598.940430	51019.015625
0.000000	1597.938477	52428.726563
0.000000	1596.936523	54188.476563
0.000000	1595.934570	55501.773438
0.000000	1594.931641	57630.652344
0.000000	1593.928711	60301.785156
0.000000	1592.925781	62278.613281
0.000000	1591.922852	65302.917969
0.000000	1590.918945	67895.710938
0.000000	1589.915039	71022.593750
0.000000	1588.911133	73933.132813
0.000000	1587.907227	77237.421875
0.000000	1586.903320	80830.234375
0.000000	1585.898438	83866.804688
0.000000	1584.894531	86647.273438
0.000000	1583.889648	89164.304688
0.000000	1582.883789	90641.429688
0.000000	1581.878906	92100.445313
0.000000	1580.873047	93309.226563
0.000000	1579.867188	92378.726563
0.000000	1578.861328	90789.898438
0.000000	1577.855469	89663.226563
0.000000	1576.848633	87132.859375
0.000000	1575.842773	83638.546875
0.000000	1574.835938	80978.367188
0.000000	1573.828125	77486.796875
0.000000	1572.821289	74796.617188
0.000000	1571.813477	70871.796875
0.000000	1570.805664	67668.500000
0.000000	1569.797852	65350.640625
0.000000	1568.790039	62256.910156
0.000000	1567.782227	60232.406250
0.000000	1566.773438	57930.000000
0.000000	1565.764648	55782.835938
0.000000	1564.755859	54071.929688
0.000000	1563.747070	52302.046875
0.000000	1562.737305	50761.683594
0.000000	1561.727539	49376.109375
0.000000	1560.717773	48127.828125
0.000000	1559.708008	46748.355469
0.000000	1558.697266	46092.492188
0.000000	1557.687500	45610.785156
0.000000	1556.676758	44349.433594
0.000000	1555.666016	43538.042969
0.000000	1554.654297	43062.136719
0.000000	1553.643555	42626.136719
0.000000	1552.631836	42299.503906
0.000000	1551.620117	42565.957031
0.000000	1550.608398	41745.859375
0.000000	1549.596680	41841.191406
0.000000	1548.583984	41477.796875
0.000000	1547.571289	41632.632813
0.000000	1546.558594	41485.039063
0.000000	1545.545898	42142.800781
0.000000	1544.532227	42047.179688
0.000000	1543.518555	42404.847656
0.000000	1542.504883	42735.117188
0.000000	1541.491211	43273.207031
0.000000	1540.477539	43531.367188
0.000000	1539.462891	43485.027344
0.000000	1538.448242	43953.328125
0.000000	1537.433594	44804.839844
0.000000	1536.418945	44874.484375
0.000000	1535.404297	45599.332031
0.000000	1534.388672	45629.218750
0.000000	1533.373047	45523.152344
0.000000	1532.357422	45664.230469
0.000000	1531.340820	46007.824219
0.000000	1530.325195	45807.875000
0.000000	1529.308594	45790.746094
0.000000	1528.291992	45899.535156
0.000000	1527.275391	45625.675781
0.000000	1526.257813	46065.136719
0.000000	1525.240234	45687.722656
0.000000	1524.223633	45564.542969
0.000000	1523.205078	45868.082031
0.000000	1522.187500	46112.308594
0.000000	1521.168945	45981.710938
0.000000	1520.151367	45942.355469
0.000000	1519.132813	46159.292969
0.000000	1518.113281	46095.277344
0.000000	1517.094727	46277.597656
0.000000	1516.075195	46031.339844
0.000000	1515.055664	45900.898438
0.000000	1514.036133	44899.113281
0.000000	1513.016602	44921.550781
0.000000	1511.996094	44397.734375
0.000000	1510.975586	44255.437500
0.000000	1509.955078	43574.574219
0.000000	1508.934570	43880.035156
0.000000	1507.914063	44411.539063
0.000000	1506.892578	44554.464844
0.000000	1505.871094	44100.179688
0.000000	1504.849609	44557.578125
0.000000	1503.827148	44852.660156
0.000000	1502.805664	45385.828125
0.000000	1501.783203	45449.800781
0.000000	1500.760742	45754.312500
0.000000	1499.738281	46257.480469
0.000000	1498.714844	46819.320313
0.000000	1497.691406	46905.000000
0.000000	1496.668945	47643.042969
0.000000	1495.644531	47936.933594
0.000000	1494.621094	48240.500000
0.000000	1493.596680	48276.761719
0.000000	1492.573242	48883.984375
0.000000	1491.547852	49236.140625
0.000000	1490.523438	49495.062500
0.000000	1489.499023	50231.421875
0.000000	1488.473633	50641.812500
0.000000	1487.448242	50359.257813
0.000000	1486.422852	50275.058594
0.000000	1485.396484	51301.785156
0.000000	1484.371094	51222.304688
0.000000	1483.344727	51353.195313
0.000000	1482.318359	52308.105469
0.000000	1481.291992	52810.312500
0.000000	1480.264648	53043.425781
0.000000	1479.237305	53511.035156
0.000000	1478.209961	54322.937500
0.000000	1477.182617	55361.660156
0.000000	1476.155273	55503.648438
0.000000	1475.126953	55472.214844
0.000000	1474.098633	56168.246094
0.000000	1473.070313	56385.617188
0.000000	1472.041992	55761.054688
0.000000	1471.012695	56051.593750
0.000000	1469.983398	55210.285156
0.000000	1468.954102	55276.464844
0.000000	1467.924805	54864.765625
0.000000	1466.895508	54428.859375
0.000000	1465.865234	54578.007813
0.000000	1464.834961	54298.273438
0.000000	1463.804688	53509.550781
0.000000	1462.773438	53583.289063
0.000000	1461.743164	52700.089844
0.000000	1460.711914	52934.625000
0.000000	1459.680664	52679.859375
0.000000	1458.649414	51996.941406
0.000000	1457.617188	51985.753906
0.000000	1456.584961	51998.890625
0.000000	1455.552734	52072.812500
0.000000	1454.520508	51747.976563
0.000000	1453.488281	51724.683594
0.000000	1452.455078	52010.023438
0.000000	1451.421875	51661.101563
0.000000	1450.388672	52558.457031
0.000000	1449.355469	52452.417969
0.000000	1448.321289	52892.734375
0.000000	1447.288086	53051.261719
0.000000	1446.253906	53493.675781
0.000000	1445.218750	53850.964844
0.000000	1444.184570	54479.804688
0.000000	1443.149414	54053.304688
0.000000	1442.114258	54875.812500
0.000000	1441.079102	54982.765625
0.000000	1440.043945	54871.523438
0.000000	1439.007813	55400.082031
0.000000	1437.971680	55102.230469
0.000000	1436.935547	55734.660156
0.000000	1435.899414	55456.230469
0.000000	1434.862305	55185.175781
0.000000	1433.826172	55190.195313
0.000000	1432.789063	55483.214844
0.000000	1431.750977	55384.113281
0.000000	1430.713867	54835.089844
0.000000	1429.675781	55418.214844
0.000000	1428.637695	55369.960938
0.000000	1427.599609	55084.796875
0.000000	1426.561523	54753.824219
0.000000	1425.522461	54729.894531
0.000000	1424.483398	54705.968750
0.000000	1423.444336	54880.121094
0.000000	1422.405273	54873.070313
0.000000	1421.365234	53955.769531
0.000000	1420.326172	54192.718750
0.000000	1419.286133	54282.339844
0.000000	1418.245117	53626.339844
0.000000	1417.205078	53566.472656
0.000000	1416.164063	53330.562500
0.000000	1415.123047	53104.394531
0.000000	1414.082031	53350.835938
0.000000	1413.041016	53428.445313
0.000000	1411.999023	53626.503906
0.000000	1410.957031	54120.808594
0.000000	1409.915039	54410.152344
0.000000	1408.873047	54781.246094
0.000000	1407.831055	55048.644531
0.000000	1406.788086	55717.910156
0.000000	1405.745117	56512.027344
0.000000	1404.702148	57885.660156
0.000000	1403.658203	58748.714844
0.000000	1402.614258	60154.925781
0.000000	1401.571289	61122.898438
0.000000	1400.526367	63503.996094
0.000000	1399.482422	65662.937500
0.000000	1398.437500	67859.375000
0.000000	1397.393555	69913.109375
0.000000	1396.347656	72422.312500
0.000000	1395.302734	74851.164063
0.000000	1394.257813	76352.226563
0.000000	1393.211914	78299.093750
0.000000	1392.166016	80225.898438
0.000000	1391.120117	82317.414063
0.000000	1390.073242	82558.562500
0.000000	1389.026367	83775.687500
0.000000	1387.979492	83910.890625
0.000000	1386.932617	85148.750000
0.000000	1385.885742	84468.710938
0.000000	1384.837891	85152.382813
0.000000	1383.790039	84863.109375
0.000000	1382.742188	84339.242188
0.000000	1381.694336	84122.101563
0.000000	1380.645508	83804.500000
0.000000	1379.596680	82754.601563
0.000000	1378.547852	82131.109375
0.000000	1377.499023	82134.726563
0.000000	1376.450195	82310.546875
0.000000	1375.400391	81984.085938
0.000000	1374.350586	81086.320313
0.000000	1373.300781	82223.187500
0.000000	1372.250000	82339.062500
0.000000	1371.199219	82966.210938
0.000000	1370.148438	84051.734375
0.000000	1369.097656	84386.843750
0.000000	1368.046875	84628.671875
0.000000	1366.995117	84598.234375
0.000000	1365.943359	85085.734375
0.000000	1364.891602	85062.359375
0.000000	1363.839844	85427.851563
0.000000	1362.787109	84638.750000
0.000000	1361.735352	83900.062500
0.000000	1360.682617	83271.359375
0.000000	1359.628906	81896.843750
0.000000	1358.576172	81295.054688
0.000000	1357.522461	79268.734375
0.000000	1356.468750	77522.000000
0.000000	1355.415039	76597.648438
0.000000	1354.360352	74361.757813
0.000000	1353.306641	72381.546875
0.000000	1352.251953	70971.023438
0.000000	1351.196289	68547.453125
0.000000	1350.141602	67024.179688
0.000000	1349.085938	65675.195313
0.000000	1348.030273	64367.218750
0.000000	1346.974609	63563.812500
0.000000	1345.918945	62556.347656
0.000000	1344.862305	61862.992188
0.000000	1343.806641	60290.882813
0.000000	1342.749023	60120.882813
0.000000	1341.692383	59402.378906
0.000000	1340.635742	58612.960938
0.000000	1339.578125	57933.070313
0.000000	1338.520508	58110.203125
0.000000	1337.462891	57338.179688
0.000000	1336.404297	56931.804688
0.000000	1335.345703	56905.062500
0.000000	1334.287109	55688.027344
0.000000	1333.228516	55256.191406
0.000000	1332.169922	54203.578125
0.000000	1331.110352	53729.597656
0.000000	1330.050781	52625.656250
0.000000	1328.991211	51877.472656
0.000000	1327.930664	50584.976563
0.000000	1326.871094	49712.085938
0.000000	1325.810547	48323.578125
0.000000	1324.750000	47605.378906
0.000000	1323.688477	46426.140625
0.000000	1322.627930	45412.992188
0.000000	1321.566406	44762.113281
0.000000	1320.504883	44610.390625
0.000000	1319.443359	43730.675781
0.000000	1318.380859	43269.648438
0.000000	1317.318359	43512.925781
0.000000	1316.255859	43552.941406
0.000000	1315.193359	43727.554688
0.000000	1314.129883	43942.226563
0.000000	1313.067383	44111.945313
0.000000	1312.003906	43854.394531
0.000000	1310.939453	45187.359375
0.000000	1309.875977	45573.722656
0.000000	1308.811523	46342.003906
0.000000	1307.747070	47906.976563
0.000000	1306.682617	49285.007813
0.000000	1305.617188	50631.781250
0.000000	1304.552734	51841.281250
0.000000	1303.487305	53707.566406
0.000000	1302.421875	55346.894531
0.000000	1301.355469	56542.757813
0.000000	1300.290039	57658.039063
0.000000	1299.223633	58961.136719
0.000000	1298.157227	59771.789063
0.000000	1297.089844	61149.125000
0.000000	1296.023438	62001.265625
0.000000	1294.956055	61411.347656
0.000000	1293.888672	62829.714844
0.000000	1292.820313	63095.550781
0.000000	1291.752930	62465.808594
0.000000	1290.684570	62879.636719
0.000000	1289.616211	62861.011719
0.000000	1288.546875	62379.695313
0.000000	1287.478516	62046.519531
0.000000	1286.409180	61288.554688
0.000000	1285.339844	60509.800781
0.000000	1284.270508	59327.761719
0.000000	1283.200195	58500.503906
0.000000	1282.129883	56533.648438
0.000000	1281.059570	56152.933594
0.000000	1279.989258	55153.417969
0.000000	1278.918945	54102.773438
0.000000	1277.847656	52499.515625
0.000000	1276.776367	51391.343750
0.000000	1275.705078	49758.937500
0.000000	1274.632813	48754.902344
0.000000	1273.561523	48067.398438
0.000000	1272.489258	47298.265625
0.000000	1271.416016	46646.488281
0.000000	1270.343750	46030.097656
0.000000	1269.270508	45273.613281
0.000000	1268.197266	45069.425781
0.000000	1267.124023	44530.949219
0.000000	1266.050781	43917.894531
0.000000	1264.976563	43506.117188
0.000000	1263.902344	42554.726563
0.000000	1262.828125	42430.781250
0.000000	1261.753906	41774.347656
0.000000	1260.678711	41802.414063
0.000000	1259.603516	41928.523438
0.000000	1258.528320	41713.781250
0.000000	1257.452148	41940.191406
0.000000	1256.376953	41767.531250
0.000000	1255.300781	41683.585938
0.000000	1254.224609	41718.609375
0.000000	1253.147461	41611.386719
0.000000	1252.071289	41583.464844
0.000000	1250.994141	41569.535156
0.000000	1249.916992	41425.125000
0.000000	1248.839844	41523.046875
0.000000	1247.761719	41728.046875
0.000000	1246.683594	41008.566406
0.000000	1245.605469	41101.843750
0.000000	1244.527344	41285.847656
0.000000	1243.448242	41537.242188
0.000000	1242.369141	41420.957031
0.000000	1241.290039	41341.933594
0.000000	1240.210938	41151.324219
0.000000	1239.130859	41193.281250
0.000000	1238.050781	41409.535156
0.000000	1236.970703	41400.281250
0.000000	1235.890625	41739.515625
0.000000	1234.810547	42122.726563
0.000000	1233.729492	42201.554688
0.000000	1232.648438	42607.699219
0.000000	1231.566406	43074.011719
0.000000	1230.485352	43393.910156
0.000000	1229.403320	43611.574219
0.000000	1228.321289	43360.574219
0.000000	1227.239258	44083.703125
0.000000	1226.156250	43927.765625
0.000000	1225.073242	44323.589844
0.000000	1223.990234	45106.261719
0.000000	1222.907227	46066.992188
0.000000	1221.823242	47256.617188
0.000000	1220.740234	47389.621094
0.000000	1219.656250	48495.050781
0.000000	1218.571289	48444.828125
0.000000	1217.487305	48265.015625
0.000000	1216.402344	47870.082031
0.000000	1215.317383	47655.769531
0.000000	1214.232422	47471.613281
0.000000	1213.146484	47854.062500
0.000000	1212.060547	47004.128906
0.000000	1210.974609	47067.539063
0.000000	1209.888672	46396.085938
0.000000	1208.802734	46397.222656
0.000000	1207.715820	46361.394531
0.000000	1206.628906	46046.160156
0.000000	1205.541992	45920.378906
0.000000	1204.454102	45596.148438
0.000000	1203.366211	46121.281250
0.000000	1202.278320	46055.542969
0.000000	1201.190430	46732.566406
0.000000	1200.101563	47810.546875
0.000000	1199.013672	48901.871094
0.000000	1197.924805	49819.820313
0.000000	1196.834961	50610.601563
0.000000	1195.746094	52101.449219
0.000000	1194.656250	53884.171875
0.000000	1193.566406	55193.968750
0.000000	1192.476563	57437.984375
0.000000	1191.385742	59549.769531
0.000000	1190.294922	62387.859375
0.000000	1189.204102	64435.441406
0.000000	1188.113281	66981.289063
0.000000	1187.021484	69767.468750
0.000000	1185.930664	72763.929688
0.000000	1184.838867	75669.375000
0.000000	1183.746094	80113.398438
0.000000	1182.654297	85361.945313
0.000000	1181.561523	90288.789063
0.000000	1180.468750	95133.015625
0.000000	1179.375977	99504.312500
0.000000	1178.282227	102741.820313
0.000000	1177.188477	105674.882813
0.000000	1176.094727	107645.125000
0.000000	1175.000977	108845.906250
0.000000	1173.906250	109520.890625
0.000000	1172.811523	109652.078125
0.000000	1171.716797	109528.710938
0.000000	1170.622070	108208.898438
0.000000	1169.526367	105407.007813
0.000000	1168.431641	102216.890625
0.000000	1167.334961	98345.609375
0.000000	1166.239258	94721.109375
0.000000	1165.143555	89909.976563
0.000000	1164.046875	85945.648438
0.000000	1162.950195	81697.054688
0.000000	1161.852539	77679.171875
0.000000	1160.755859	72761.835938
0.000000	1159.658203	69106.828125
0.000000	1158.560547	65496.914063
0.000000	1157.461914	62437.246094
0.000000	1156.364258	58903.597656
0.000000	1155.265625	56676.207031
0.000000	1154.166992	53935.839844
0.000000	1153.067383	51920.683594
0.000000	1151.967773	50102.804688
0.000000	1150.869141	48762.851563
0.000000	1149.768555	47471.425781
0.000000	1148.668945	46477.210938
0.000000	1147.568359	45866.695313
0.000000	1146.467773	45322.589844
0.000000	1145.367188	44343.210938
0.000000	1144.266602	44073.253906
0.000000	1143.165039	43534.472656
0.000000	1142.063477	42542.480469
0.000000	1140.961914	42623.933594
0.000000	1139.859375	42236.160156
0.000000	1138.757813	42178.738281
0.000000	1137.655273	41634.148438
0.000000	1136.551758	41442.593750
0.000000	1135.449219	41207.886719
0.000000	1134.345703	40998.304688
0.000000	1133.242188	41123.171875
0.000000	1132.138672	40226.949219
0.000000	1131.034180	40426.949219
0.000000	1129.929688	39997.246094
0.000000	1128.825195	40019.949219
0.000000	1127.720703	39660.957031
0.000000	1126.616211	40113.011719
0.000000	1125.510742	40203.789063
0.000000	1124.405273	39697.410156
0.000000	1123.298828	39942.582031
0.000000	1122.193359	39951.625000
0.000000	1121.086914	39935.707031
0.000000	1119.980469	39960.617188
0.000000	1118.873047	40248.578125
0.000000	1117.766602	40418.503906
0.000000	1116.659180	39940.058594
0.000000	1115.551758	40055.582031
0.000000	1114.443359	40266.207031
0.000000	1113.335938	39699.769531
0.000000	1112.227539	39724.667969
0.000000	1111.118164	40005.402344
0.000000	1110.009766	39869.492188
0.000000	1108.900391	39529.957031
0.000000	1107.791016	39106.863281
0.000000	1106.681641	39265.308594
0.000000	1105.572266	39093.492188
0.000000	1104.461914	38571.289063
0.000000	1103.351563	37967.937500
0.000000	1102.241211	38203.328125
0.000000	1101.129883	37925.699219
0.000000	1100.018555	37715.960938
0.000000	1098.907227	37806.695313
0.000000	1097.795898	37870.285156
0.000000	1096.683594	37606.515625
0.000000	1095.572266	37412.828125
0.000000	1094.458984	36673.179688
0.000000	1093.346680	36809.144531
0.000000	1092.234375	36349.628906
0.000000	1091.121094	36255.605469
0.000000	1090.006836	35850.523438
0.000000	1088.893555	35371.250000
0.000000	1087.779297	35435.234375
0.000000	1086.666016	35188.300781
0.000000	1085.550781	35268.058594
0.000000	1084.436523	35120.347656
0.000000	1083.321289	35157.300781
0.000000	1082.206055	34744.093750
0.000000	1081.090820	34799.109375
0.000000	1079.974609	34572.890625
0.000000	1078.859375	34191.582031
0.000000	1077.743164	34091.523438
0.000000	1076.625977	33800.414063
0.000000	1075.509766	32936.300781
0.000000	1074.392578	33432.066406
0.000000	1073.275391	33094.121094
0.000000	1072.158203	32704.673828
0.000000	1071.040039	32647.738281
0.000000	1069.921875	32691.851563
0.000000	1068.803711	32482.312500
0.000000	1067.685547	32340.187500
0.000000	1066.566406	32072.488281
0.000000	1065.447266	31878.927734
0.000000	1064.328125	31629.392578
0.000000	1063.208008	31709.531250
0.000000	1062.088867	31601.349609
0.000000	1060.968750	31594.056641
0.000000	1059.847656	31320.160156
0.000000	1058.727539	31333.085938
0.000000	1057.606445	30902.617188
0.000000	1056.485352	30613.388672
0.000000	1055.364258	30995.775391
0.000000	1054.242188	30811.828125
0.000000	1053.120117	30589.929688
0.000000	1051.998047	30386.023438
0.000000	1050.875977	30282.837891
0.000000	1049.752930	29974.011719
0.000000	1048.629883	29980.488281
0.000000	1047.506836	29955.671875
0.000000	1046.383789	29765.535156
0.000000	1045.259766	29892.662109
0.000000	1044.135742	29798.646484
0.000000	1043.011719	29521.599609
0.000000	1041.886719	29688.859375
0.000000	1040.762695	29501.222656
0.000000	1039.637695	29686.253906
0.000000	1038.511719	29797.587891
0.000000	1037.386719	29770.605469
0.000000	1036.260742	29712.421875
0.000000	1035.134766	30213.732422
0.000000	1034.007813	30050.728516
0.000000	1032.881836	30215.302734
0.000000	1031.754883	29740.527344
0.000000	1030.627930	29931.814453
0.000000	1029.500000	29824.673828
0.000000	1028.372070	29557.316406
0.000000	1027.245117	29218.869141
0.000000	1026.116211	29394.511719
0.000000	1024.988281	29472.201172
0.000000	1023.859375	29452.001953
0.000000	1022.730469	29471.830078
0.000000	1021.601563	29311.599609
0.000000	1020.471680	29495.890625
0.000000	1019.341797	29795.623047
0.000000	1018.211914	29746.480469
0.000000	1017.082031	30046.007813
0.000000	1015.951172	30123.375000
0.000000	1014.820313	30560.285156
0.000000	1013.689453	30526.533203
0.000000	1012.557617	30714.654297
0.000000	1011.426758	30791.779297
0.000000	1010.293945	31086.187500
0.000000	1009.162109	31305.076172
0.000000	1008.030273	31712.265625
0.000000	1006.897461	31961.923828
0.000000	1005.764648	32399.779297
0.000000	1004.630859	32425.437500
0.000000	1003.498047	33057.847656
0.000000	1002.364258	32979.277344
0.000000	1001.230469	33281.453125
0.000000	1000.095703	32771.335938
0.000000	998.960938	32995.976563
0.000000	997.826172	32974.984375
0.000000	996.691406	33199.464844
0.000000	995.556641	32952.921875
0.000000	994.420898	33343.070313
0.000000	993.285156	33165.109375
0.000000	992.148438	32863.503906
0.000000	991.012695	32970.660156
0.000000	989.875977	33102.058594
0.000000	988.739258	33014.820313
0.000000	987.601563	33029.152344
0.000000	986.463867	32716.878906
0.000000	985.326172	33064.402344
0.000000	984.188477	33647.769531
0.000000	983.049805	33994.906250
0.000000	981.912109	34167.710938
0.000000	980.773438	35400.613281
0.000000	979.633789	35802.171875
0.000000	978.495117	36395.210938
0.000000	977.355469	36723.652344
0.000000	976.214844	37058.542969
0.000000	975.075195	37236.960938
0.000000	973.934570	37703.628906
0.000000	972.793945	37375.687500
0.000000	971.653320	37776.089844
0.000000	970.511719	37602.238281
0.000000	969.370117	37613.179688
0.000000	968.228516	37575.742188
0.000000	967.086914	37670.195313
0.000000	965.944336	37584.410156
0.000000	964.801758	37503.058594
0.000000	963.659180	36993.445313
0.000000	962.516602	37628.109375
0.000000	961.373047	37566.546875
0.000000	960.229492	37116.527344
0.000000	959.084961	37048.523438
0.000000	957.941406	36614.183594
0.000000	956.796875	36112.058594
0.000000	955.652344	36110.109375
0.000000	954.506836	35369.375000
0.000000	953.362305	35163.765625
0.000000	952.216797	34855.261719
0.000000	951.070313	34884.261719
0.000000	949.924805	34302.195313
0.000000	948.778320	34331.304688
0.000000	947.631836	34080.191406
0.000000	946.485352	34229.703125
0.000000	945.337891	34396.648438
0.000000	944.190430	35036.023438
0.000000	943.042969	35036.472656
0.000000	941.894531	35500.460938
0.000000	940.747070	36069.156250
0.000000	939.597656	36095.574219
0.000000	938.449219	35560.437500
0.000000	937.300781	35479.917969
0.000000	936.151367	35585.066406
0.000000	935.001953	34672.683594
0.000000	933.851563	34404.691406
0.000000	932.701172	33689.429688
0.000000	931.550781	33600.699219
0.000000	930.400391	33583.992188
0.000000	929.250000	33863.882813
0.000000	928.098633	34043.339844
0.000000	926.947266	34741.496094
0.000000	925.794922	35489.441406
0.000000	924.642578	36672.777344
0.000000	923.490234	38635.355469
0.000000	922.337891	41629.230469
0.000000	921.185547	45017.925781
0.000000	920.032227	48864.281250
0.000000	918.878906	51442.269531
0.000000	917.724609	54093.000000
0.000000	916.571289	54945.804688
0.000000	915.416992	55624.230469
0.000000	914.262695	55317.460938
0.000000	913.107422	55341.214844
0.000000	911.952148	54799.960938
0.000000	910.796875	53129.238281
0.000000	909.641602	51370.253906
0.000000	908.485352	48476.414063
0.000000	907.329102	46055.050781
0.000000	906.172852	43066.183594
0.000000	905.016602	40677.636719
0.000000	903.859375	38613.472656
0.000000	902.702148	37435.199219
0.000000	901.544922	36207.613281
0.000000	900.386719	35030.472656
0.000000	899.228516	34124.804688
0.000000	898.070313	33343.078125
0.000000	896.911133	32977.652344
0.000000	895.752930	32584.242188
0.000000	894.593750	32100.074219
0.000000	893.433594	31930.023438
0.000000	892.274414	31909.380859
0.000000	891.114258	31685.355469
0.000000	889.954102	31645.304688
0.000000	888.792969	31564.179688
0.000000	887.632813	31323.087891
0.000000	886.470703	31125.341797
0.000000	885.309570	31496.060547
0.000000	884.148438	31237.863281
0.000000	882.986328	31385.878906
0.000000	881.824219	31030.644531
0.000000	880.661133	31286.583984
0.000000	879.498047	31345.970703
0.000000	878.334961	31513.224609
0.000000	877.171875	31227.324219
0.000000	876.007813	31045.091797
0.000000	874.843750	30916.853516
0.000000	873.679688	30814.542969
0.000000	872.515625	30792.029297
0.000000	871.350586	30474.302734
0.000000	870.185547	30003.765625
0.000000	869.020508	30155.912109
0.000000	867.854492	30140.021484
0.000000	866.688477	30068.162109
0.000000	865.522461	29806.933594
0.000000	864.356445	29565.191406
0.000000	863.189453	29697.878906
0.000000	862.022461	29959.542969
0.000000	860.854492	30098.513672
0.000000	859.687500	30018.144531
0.000000	858.519531	30451.460938
0.000000	857.351563	30364.593750
0.000000	856.182617	30468.945313
0.000000	855.013672	30538.882813
0.000000	853.844727	30576.574219
0.000000	852.675781	30736.597656
0.000000	851.505859	30823.574219
0.000000	850.335938	30871.884766
0.000000	849.166016	31025.273438
0.000000	847.995117	31242.917969
0.000000	846.825195	30909.455078
0.000000	845.653320	31439.955078
0.000000	844.482422	31040.166016
0.000000	843.310547	31396.833984
0.000000	842.138672	31629.095703
0.000000	840.966797	31550.744141
0.000000	839.793945	32076.142578
0.000000	838.622070	32076.902344
0.000000	837.448242	32137.572266
0.000000	836.275391	32215.322266
0.000000	835.101563	33041.593750
0.000000	833.927734	32930.914063
0.000000	832.753906	33130.250000
0.000000	831.579102	33312.386719
0.000000	830.404297	33639.722656
0.000000	829.229492	33862.226563
0.000000	828.054688	33839.015625
0.000000	826.878906	33600.167969
0.000000	825.703125	33613.312500
0.000000	824.526367	33492.003906
0.000000	823.350586	33739.847656
0.000000	822.173828	33518.304688
0.000000	820.996094	33126.261719
0.000000	819.819336	33261.007813
0.000000	818.641602	33333.867188
0.000000	817.463867	33673.054688
0.000000	816.285156	33596.644531
0.000000	815.107422	34161.359375
0.000000	813.928711	34932.347656
0.000000	812.749023	35377.234375
0.000000	811.570313	36181.585938
0.000000	810.390625	37253.644531
0.000000	809.209961	38331.554688
0.000000	808.030273	39104.800781
0.000000	806.849609	39665.039063
0.000000	805.668945	40726.667969
0.000000	804.488281	41490.238281
0.000000	803.306641	42863.214844
0.000000	802.125000	43171.304688
0.000000	800.943359	43390.046875
0.000000	799.760742	43716.957031
0.000000	798.578125	43258.335938
0.000000	797.395508	43343.187500
0.000000	796.211914	42901.847656
0.000000	795.029297	41709.878906
0.000000	793.844727	41163.121094
0.000000	792.661133	40593.304688
0.000000	791.476563	38953.441406
0.000000	790.291992	37572.890625
0.000000	789.107422	36741.683594
0.000000	787.922852	35836.753906
0.000000	786.737305	34608.308594
0.000000	785.550781	34098.074219
0.000000	784.365234	33302.382813
0.000000	783.178711	32930.238281
0.000000	781.992188	32344.630859
0.000000	780.805664	31321.556641
0.000000	779.618164	30683.771484
0.000000	778.430664	30500.742188
0.000000	777.243164	30013.503906
0.000000	776.054688	29767.343750
0.000000	774.866211	29897.259766
0.000000	773.677734	29454.863281
0.000000	772.489258	29916.224609
0.000000	771.299805	30286.599609
0.000000	770.110352	30418.351563
0.000000	768.919922	30187.197266
0.000000	767.730469	30042.621094
0.000000	766.540039	30256.552734
0.000000	765.348633	31083.785156
0.000000	764.158203	32749.357422
0.000000	762.966797	34418.312500
0.000000	761.774414	36610.917969
0.000000	760.583008	39720.578125
0.000000	759.390625	41380.222656
0.000000	758.198242	40315.417969
0.000000	757.005859	37622.421875
0.000000	755.812500	35517.710938
0.000000	754.619141	33578.097656
0.000000	753.424805	32354.363281
0.000000	752.231445	31433.949219
0.000000	751.037109	30938.523438
0.000000	749.842773	31164.031250
0.000000	748.647461	31296.992188
0.000000	747.452148	31679.794922
0.000000	746.256836	32175.777344
0.000000	745.060547	31829.791016
0.000000	743.865234	31719.007813
0.000000	742.668945	31362.810547
0.000000	741.471680	31218.630859
0.000000	740.274414	31475.033203
0.000000	739.077148	32035.281250
0.000000	737.879883	32609.916016
0.000000	736.681641	34034.976563
0.000000	735.484375	35966.265625
0.000000	734.285156	38062.031250
0.000000	733.086914	40918.882813
0.000000	731.887695	43010.250000
0.000000	730.688477	43597.980469
0.000000	729.488281	43785.792969
0.000000	728.288086	45328.917969
0.000000	727.087891	46235.546875
0.000000	725.887695	48289.472656
0.000000	724.686523	48172.824219
0.000000	723.485352	47448.160156
0.000000	722.284180	45821.378906
0.000000	721.082031	44266.417969
0.000000	719.879883	41653.617188
0.000000	718.677734	38760.312500
0.000000	717.474609	35711.941406
0.000000	716.272461	33263.902344
0.000000	715.068359	31636.855469
0.000000	713.865234	30807.236328
0.000000	712.661133	30113.544922
0.000000	711.457031	29399.355469
0.000000	710.251953	28889.734375
0.000000	709.047852	28403.283203
0.000000	707.842773	28150.337891
0.000000	706.636719	28155.712891
0.000000	705.431641	28190.222656
0.000000	704.225586	27968.728516
0.000000	703.018555	27670.357422
0.000000	701.812500	27659.189453
0.000000	700.605469	27612.667969
0.000000	699.397461	27564.087891
0.000000	698.190430	27604.904297
0.000000	696.982422	27747.517578
0.000000	695.774414	27482.869141
0.000000	694.565430	27463.429688
0.000000	693.356445	27697.318359
0.000000	692.147461	27659.142578
0.000000	690.938477	27654.187500
0.000000	689.728516	27680.353516
0.000000	688.518555	27457.583984
0.000000	687.308594	27666.269531
0.000000	686.097656	27673.738281
0.000000	684.886719	27898.833984
0.000000	683.674805	27688.650391
0.000000	682.463867	27706.453125
0.000000	681.251953	28308.302734
0.000000	680.040039	27967.712891
0.000000	678.827148	28047.519531
0.000000	677.614258	28520.494141
0.000000	676.401367	28382.861328
0.000000	675.187500	28363.197266
0.000000	673.973633	28846.056641
0.000000	672.759766	29084.705078
0.000000	671.545898	29323.226563
0.000000	670.331055	29379.779297
0.000000	669.116211	29880.457031
0.000000	667.900391	30296.193359
0.000000	666.684570	30717.906250
0.000000	665.468750	31131.142578
0.000000	664.252930	31517.332031
0.000000	663.036133	31439.097656
0.000000	661.819336	31266.013672
0.000000	660.602539	31181.685547
0.000000	659.384766	31219.031250
0.000000	658.166992	31452.156250
0.000000	656.948242	31977.753906
0.000000	655.730469	31961.289063
0.000000	654.511719	32342.310547
0.000000	653.291992	32836.375000
0.000000	652.073242	33091.398438
0.000000	650.853516	33502.683594
0.000000	649.633789	33757.394531
0.000000	648.413086	34466.527344
0.000000	647.192383	34702.339844
0.000000	645.971680	34676.937500
0.000000	644.750000	34861.179688
0.000000	643.528320	34891.214844
0.000000	642.306641	35005.453125
0.000000	641.084961	34799.253906
0.000000	639.862305	35090.011719
0.000000	638.639648	35319.035156
0.000000	637.416016	35827.011719
0.000000	636.192383	35860.820313
0.000000	634.968750	36060.730469
0.000000	633.745117	36629.621094
0.000000	632.520508	35998.992188
0.000000	631.295898	36376.992188
0.000000	630.070313	35830.746094
0.000000	628.844727	35647.335938
0.000000	627.619141	35806.000000
0.000000	626.393555	35962.527344
0.000000	625.166992	36360.480469
0.000000	623.940430	36308.054688
0.000000	622.712891	36822.304688
0.000000	621.486328	36714.554688
0.000000	620.258789	36940.125000
0.000000	619.030273	36315.234375
0.000000	617.802734	36403.859375
0.000000	616.573242	36000.066406
0.000000	615.344727	35326.867188
0.000000	614.115234	34817.371094
5.000000	1722.566406	19547.876953
5.000000	1721.590820	19838.332031
5.000000	1720.613281	19865.152344
5.000000	1719.636719	20164.312500
5.000000	1718.659180	20142.246094
5.000000	1717.682617	20107.343750
5.000000	1716.705078	20226.521484
5.000000	1715.727539	20165.941406
5.000000	1714.749023	20202.917969
5.000000	1713.771484	20458.007813
5.000000	1712.792969	20222.943359
5.000000	1711.814453	20711.353516
5.000000	1710.835938	20696.888672
5.000000	1709.856445	20320.882813
5.000000	1708.877930	20168.064453
5.000000	1707.898438	20492.042969
5.000000	1706.918945	20695.445313
5.000000	1705.939453	20809.091797
5.000000	1704.958984	20584.566406
5.000000	1703.979492	20672.574219
5.000000	1702.999023	20842.480469
5.000000	1702.018555	20387.679688
5.000000	1701.038086	20846.791016
5.000000	1700.056641	20650.623047
5.000000	1699.076172	20822.945313
5.000000	1698.094727	20611.511719
5.000000	1697.113281	20566.392578
5.000000	1696.131836	20610.777344
5.000000	1695.149414	20736.945313
5.000000	1694.167969	20857.949219
5.000000	1693.185547	20812.806641
5.000000	1692.203125	20790.673828
5.000000	1691.219727	20788.982422
5.000000	1690.237305	20761.751953
5.000000	1689.253906	20834.105469
5.000000	1688.270508	20781.347656
5.000000	1687.287109	20942.988281
5.000000	1686.303711	21153.042969
5.000000	1685.320313	21306.884766
5.000000	1684.335938	21144.388672
5.000000	1683.351563	21129.861328
5.000000	1682.367188	21087.291016
5.000000	1681.382813	21478.072266
5.000000	1680.397461	21652.068359
5.000000	1679.412109	21749.550781
5.000000	1678.426758	21732.355469
5.000000	1677.441406	21944.390625
5.000000	1676.456055	21746.363281
5.000000	1675.469727	22027.041016
5.000000	1674.483398	22434.873047
5.000000	1673.497070	22618.585938
5.000000	1672.510742	22672.462891
5.000000	1671.524414	22863.679688
5.000000	1670.537109	22808.119141
5.000000	1669.549805	22750.035156
5.000000	1668.562500	22819.085938
5.000000	1667.575195	23071.107422
5.000000	1666.587891	23203.587891
5.000000	1665.599609	23193.734375
5.000000	1664.611328	23303.269531
5.000000	1663.623047	23306.093750
5.000000	1662.634766	23463.800781
5.000000	1661.646484	23573.205078
5.000000	1660.657227	23707.943359
5.000000	1659.667969	24124.291016
5.000000	1658.678711	24228.412109
5.000000	1657.689453	24540.478516
5.000000	1656.699219	24662.218750
5.000000	1655.708984	24827.007813
5.000000	1654.718750	24864.980469
5.000000	1653.728516	25065.136719
5.000000	1652.738281	25239.869141
5.000000	1651.747070	25186.527344
5.000000	1650.756836	25933.576172
5.000000	1649.765625	25948.478516
5.000000	1648.773438	25902.609375
5.000000	1647.782227	26603.478516
5.000000	1646.790039	26926.976563
5.000000	1645.798828	27166.839844
5.000000	1644.806641	27320.593750
5.000000	1643.813477	27932.058594
5.000000	1642.821289	27933.865234
5.000000	1641.828125	28405.898438
5.000000	1640.834961	28723.552734
5.000000	1639.841797	29038.542969
5.000000	1638.848633	30159.369141
5.000000	1637.854492	30324.892578
5.000000	1636.861328	30624.195313
5.000000	1635.867188	31249.091797
5.000000	1634.873047	32373.570313
5.000000	1633.877930	32881.738281
5.000000	1632.883789	33901.945313
5.000000	1631.888672	34550.863281
5.000000	1630.893555	35613.175781
5.000000	1629.898438	36248.851563
5.000000	1628.902344	37068.316406
5.000000	1627.907227	37910.125000
5.000000	1626.911133	38978.406250
5.000000	1625.915039	40847.515625
5.000000	1624.918945	42378.269531
5.000000	1623.921875	44706.808594
5.000000	1622.924805	47432.250000
5.000000	1621.928711	50594.621094
5.000000	1620.930664	54707.144531
5.000000	1619.933594	58787.753906
5.000000	1618.936523	63017.625000
5.000000	1617.938477	67047.000000
5.000000	1616.940430	69837.296875
5.000000	1615.942383	71731.265625
5.000000	1614.943359	73317.734375
5.000000	1613.945313	73533.695313
5.000000	1612.946289	72586.078125
5.000000	1611.947266	70450.468750
5.000000	1610.948242	69513.921875
5.000000	1609.948242	66792.179688
5.000000	1608.949219	65058.324219
5.000000	1607.949219	62762.878906
5.000000	1606.949219	60822.261719
5.000000	1605.948242	59449.542969
5.000000	1604.948242	59241.453125
5.000000	1603.947266	57355.441406
5.000000	1602.946289	57651.910156
5.000000	1601.945313	57080.765625
5.000000	1600.944336	57279.394531
5.000000	1599.942383	57588.207031
5.000000	1598.940430	58017.156250
5.000000	1597.938477	59570.695313
5.000000	1596.936523	61096.031250
5.000000	1595.934570	62933.726563
5.000000	1594.931641	65934.773438
5.000000	1593.928711	68656.734375
5.000000	1592.925781	71312.476563
5.000000	1591.922852	73694.398438
5.000000	1590.918945	77931.359375
5.000000	1589.915039	81126.164063
5.000000	1588.911133	84437.148438
5.000000	1587.907227	88561.679688
5.000000	1586.903320	91432.320313
5.000000	1585.898438	95930.953125
5.000000	1584.894531	100137.898438
5.000000	1583.889648	103601.242188
5.000000	1582.883789	105417.453125
5.000000	1581.878906	108998.054688
5.000000	1580.873047	110645.109375
5.000000	1579.867188	110609.406250
5.000000	1578.861328	109568.164063
5.000000	1577.855469	108320.304688
5.000000	1576.848633	106249.914063
5.000000	1575.842773	102188.046875
5.000000	1574.835938	98751.125000
5.000000	1573.828125	94518.039063
5.000000	1572.821289	91006.906250
5.000000	1571.813477	86719.914063
5.000000	1570.805664	83371.304688
5.000000	1569.797852	80933.085938
5.000000	1568.790039	78650.265625
5.000000	1567.782227	75865.546875
5.000000	1566.773438	75110.390625
5.000000	1565.764648	72501.757813
5.000000	1564.755859	70652.992188
5.000000	1563.747070	69678.023438
5.000000	1562.737305	68519.445313
5.000000	1561.727539	67473.226563
5.000000	1560.717773	66581.554688
5.000000	1559.708008	65158.425781
5.000000	1558.697266	63385.562500
5.000000	1557.687500	62587.210938
5.000000	1556.676758	60616.937500
5.000000	1555.666016	59084.507813
5.000000	1554.654297	57567.617188
5.000000	1553.643555	56088.589844
5.000000	1552.631836	54960.074219
5.000000	1551.620117	53732.789063
5.000000	1550.608398	52468.812500
5.000000	1549.596680	50915.214844
5.000000	1548.583984	50592.050781
5.000000	1547.571289	49904.621094
5.000000	1546.558594	49485.144531
5.000000	1545.545898	49633.257813
5.000000	1544.532227	49654.960938
5.000000	1543.518555	48921.238281
5.000000	1542.504883	48648.402344
5.000000	1541.491211	49529.367188
5.000000	1540.477539	49622.839844
5.000000	1539.462891	49364.863281
5.000000	1538.448242	50032.324219
5.000000	1537.433594	49930.199219
5.000000	1536.418945	50196.609375
5.000000	1535.404297	49847.226563
5.000000	1534.388672	50229.714844
5.000000	1533.373047	50468.691406
5.000000	1532.357422	50453.046875
5.000000	1531.340820	50002.597656
5.000000	1530.325195	50377.300781
5.000000	1529.308594	50420.937500
5.000000	1528.291992	49106.652344
5.000000	1527.275391	49977.441406
5.000000	1526.257813	49942.152344
5.000000	1525.240234	50175.812500
5.000000	1524.223633	50409.367188
5.000000	1523.205078	50319.734375
5.000000	1522.187500	50185.753906
5.000000	1521.168945	50500.500000
5.000000	1520.151367	50536.593750
5.000000	1519.132813	50880.691406
5.000000	1518.113281	50993.054688
5.000000	1517.094727	51770.414063
5.000000	1516.075195	51820.964844
5.000000	1515.055664	51644.976563
5.000000	1514.036133	51658.597656
5.000000	1513.016602	51504.859375
5.000000	1511.996094	51720.261719
5.000000	1510.975586	51158.203125
5.000000	1509.955078	51863.015625
5.000000	1508.934570	52540.472656
5.000000	1507.914063	53195.511719
5.000000	1506.892578	53390.636719
5.000000	1505.871094	53556.183594
5.000000	1504.849609	53520.195313
5.000000	1503.827148	53381.050781
5.000000	1502.805664	53637.347656
5.000000	1501.783203	53746.214844
5.000000	1500.760742	53459.808594
5.000000	1499.738281	53627.558594
5.000000	1498.714844	53655.371094
5.000000	1497.691406	53413.312500
5.000000	1496.668945	53811.500000
5.000000	1495.644531	53618.546875
5.000000	1494.621094	53187.863281
5.000000	1493.596680	52843.148438
5.000000	1492.573242	52317.234375
5.000000	1491.547852	52413.851563
5.000000	1490.523438	52689.238281
5.000000	1489.499023	52790.625000
5.000000	1488.473633	53276.375000
5.000000	1487.448242	52954.085938
5.000000	1486.422852	53610.902344
5.000000	1485.396484	54059.445313
5.000000	1484.371094	54551.828125
5.000000	1483.344727	55391.304688
5.000000	1482.318359	56298.886719
5.000000	1481.291992	57250.082031
5.000000	1480.264648	57966.214844
5.000000	1479.237305	59114.582031
5.000000	1478.209961	60558.082031
5.000000	1477.182617	61260.816406
5.000000	1476.155273	61943.703125
5.000000	1475.126953	62926.621094
5.000000	1474.098633	63564.910156
5.000000	1473.070313	64012.550781
5.000000	1472.041992	64386.789063
5.000000	1471.012695	64875.523438
5.000000	1469.983398	64307.933594
5.000000	1468.954102	63906.402344
5.000000	1467.924805	63334.378906
5.000000	1466.895508	63079.464844
5.000000	1465.865234	61920.546875
5.000000	1464.834961	61120.277344
5.000000	1463.804688	60091.371094
5.000000	1462.773438	59274.777344
5.000000	1461.743164	58524.273438
5.000000	1460.711914	57778.953125
5.000000	1459.680664	56970.671875
5.000000	1458.649414	57294.210938
5.000000	1457.617188	56861.015625
5.000000	1456.584961	56503.402344
5.000000	1455.552734	56612.828125
5.000000	1454.520508	56607.937500
5.000000	1453.488281	57096.464844
5.000000	1452.455078	56877.609375
5.000000	1451.421875	56807.046875
5.000000	1450.388672	57353.503906
5.000000	1449.355469	57469.859375
5.000000	1448.321289	58911.878906
5.000000	1447.288086	59129.796875
5.000000	1446.253906	59206.851563
5.000000	1445.218750	59744.894531
5.000000	1444.184570	60682.988281
5.000000	1443.149414	61268.980469
5.000000	1442.114258	62288.777344
5.000000	1441.079102	62144.417969
5.000000	1440.043945	62821.808594
5.000000	1439.007813	63048.160156
5.000000	1437.971680	64156.312500
5.000000	1436.935547	64503.382813
5.000000	1435.899414	65932.828125
5.000000	1434.862305	66310.828125
5.000000	1433.826172	66398.171875
5.000000	1432.789063	67223.632813
5.000000	1431.750977	67332.507813
5.000000	1430.713867	67269.570313
5.000000	1429.675781	68553.828125
5.000000	1428.637695	68834.015625
5.000000	1427.599609	68862.640625
5.000000	1426.561523	68833.242188
5.000000	1425.522461	69417.648438
5.000000	1424.483398	68747.882813
5.000000	1423.444336	68245.078125
5.000000	1422.405273	66873.085938
5.000000	1421.365234	65277.136719
5.000000	1420.326172	63957.062500
5.000000	1419.286133	62852.347656
5.000000	1418.245117	61410.304688
5.000000	1417.205078	59930.281250
5.000000	1416.164063	59446.984375
5.000000	1415.123047	58778.218750
5.000000	1414.082031	58237.511719
5.000000	1413.041016	58569.550781
5.000000	1411.999023	58730.347656
5.000000	1410.957031	58980.214844
5.000000	1409.915039	59718.929688
5.000000	1408.873047	59917.890625
5.000000	1407.831055	60752.378906
5.000000	1406.788086	62046.265625
5.000000	1405.745117	63322.734375
5.000000	1404.702148	64872.941406
5.000000	1403.658203	66800.140625
5.000000	1402.614258	68784.218750
5.000000	1401.571289	69685.398438
5.000000	1400.526367	72994.976563
5.000000	1399.482422	75086.960938
5.000000	1398.437500	77218.875000
5.000000	1397.393555	79936.046875
5.000000	1396.347656	82070.773438
5.000000	1395.302734	84394.273438
5.000000	1394.257813	85754.007813
5.000000	1393.211914	87538.000000
5.000000	1392.166016	89484.398438
5.000000	1391.120117	90782.132813
5.000000	1390.073242	91549.164063
5.000000	1389.026367	92913.015625
5.000000	1387.979492	93209.281250
5.000000	1386.932617	94150.257813
5.000000	1385.885742	93113.546875
5.000000	1384.837891	93946.289063
5.000000	1383.790039	93604.796875
5.000000	1382.742188	93038.304688
5.000000	1381.694336	92677.992188
5.000000	1380.645508	92315.429688
5.000000	1379.596680	92043.968750
5.000000	1378.547852	92196.187500
5.000000	1377.499023	92455.992188
5.000000	1376.450195	92785.046875
5.000000	1375.400391	94005.960938
5.000000	1374.350586	95063.750000
5.000000	1373.300781	95965.695313
5.000000	1372.250000	96214.796875
5.000000	1371.199219	97522.273438
5.000000	1370.148438	97985.906250
5.000000	1369.097656	98129.289063
5.000000	1368.046875	98064.859375
5.000000	1366.995117	97854.828125
5.000000	1365.943359	97659.203125
5.000000	1364.891602	97544.789063
5.000000	1363.839844	97215.695313
5.000000	1362.787109	96388.234375
5.000000	1361.735352	95570.664063
5.000000	1360.682617	95254.117188
5.000000	1359.628906	94096.273438
5.000000	1358.576172	93410.789063
5.000000	1357.522461	91986.992188
5.000000	1356.468750	90416.125000
5.000000	1355.415039	88586.351563
5.000000	1354.360352	86231.164063
5.000000	1353.306641	84053.156250
5.000000	1352.251953	81154.960938
5.000000	1351.196289	78586.390625
5.000000	1350.141602	76782.578125
5.000000	1349.085938	75172.210938
5.000000	1348.030273	72830.140625
5.000000	1346.974609	71701.562500
5.000000	1345.918945	70461.750000
5.000000	1344.862305	69752.406250
5.000000	1343.806641	68537.312500
5.000000	1342.749023	67581.656250
5.000000	1341.692383	67117.992188
5.000000	1340.635742	66265.148438
5.000000	1339.578125	65369.945313
5.000000	1338.520508	65391.183594
5.000000	1337.462891	64705.351563
5.000000	1336.404297	64439.687500
5.000000	1335.345703	63398.605469
5.000000	1334.287109	62078.187500
5.000000	1333.228516	61128.152344
5.000000	1332.169922	59557.574219
5.000000	1331.110352	58629.832031
5.000000	1330.050781	57221.574219
5.000000	1328.991211	56332.636719
5.000000	1327.930664	55420.406250
5.000000	1326.871094	54233.945313
5.000000	1325.810547	53045.636719
5.000000	1324.750000	52134.718750
5.000000	1323.688477	51193.437500
5.000000	1322.627930	49990.011719
5.000000	1321.566406	49120.554688
5.000000	1320.504883	48915.855469
5.000000	1319.443359	48169.929688
5.000000	1318.380859	47861.539063
5.000000	1317.318359	47366.617188
5.000000	1316.255859	47188.457031
5.000000	1315.193359	47102.476563
5.000000	1314.129883	47136.949219
5.000000	1313.067383	47086.421875
5.000000	1312.003906	48107.429688
5.000000	1310.939453	48809.429688
5.000000	1309.875977	50008.890625
5.000000	1308.811523	50542.691406
5.000000	1307.747070	51934.597656
5.000000	1306.682617	53663.015625
5.000000	1305.617188	55258.671875
5.000000	1304.552734	56648.597656
5.000000	1303.487305	58572.722656
5.000000	1302.421875	60215.687500
5.000000	1301.355469	60932.417969
5.000000	1300.290039	62345.742188
5.000000	1299.223633	62861.589844
5.000000	1298.157227	63690.210938
5.000000	1297.089844	64327.871094
5.000000	1296.023438	64478.308594
5.000000	1294.956055	64043.058594
5.000000	1293.888672	63814.917969
5.000000	1292.820313	63704.410156
5.000000	1291.752930	63062.781250
5.000000	1290.684570	62726.902344
5.000000	1289.616211	62734.152344
5.000000	1288.546875	61597.570313
5.000000	1287.478516	60773.792969
5.000000	1286.409180	60330.703125
5.000000	1285.339844	59484.089844
5.000000	1284.270508	58996.882813
5.000000	1283.200195	57967.933594
5.000000	1282.129883	57159.921875
5.000000	1281.059570	56847.074219
5.000000	1279.989258	56229.570313
5.000000	1278.918945	55668.589844
5.000000	1277.847656	54983.648438
5.000000	1276.776367	53870.234375
5.000000	1275.705078	53624.027344
5.000000	1274.632813	53157.785156
5.000000	1273.561523	52361.597656
5.000000	1272.489258	52106.511719
5.000000	1271.416016	51580.050781
5.000000	1270.343750	51482.015625
5.000000	1269.270508	51196.871094
5.000000	1268.197266	50673.285156
5.000000	1267.124023	49913.757813
5.000000	1266.050781	49717.972656
5.000000	1264.976563	48811.738281
5.000000	1263.902344	48095.183594
5.000000	1262.828125	47409.308594
5.000000	1261.753906	46938.625000
5.000000	1260.678711	45900.691406
5.000000	1259.603516	45762.066406
5.000000	1258.528320	45485.785156
5.000000	1257.452148	44745.226563
5.000000	1256.376953	44144.980469
5.000000	1255.300781	43621.976563
5.000000	1254.224609	43490.992188
5.000000	1253.147461	43182.859375
5.000000	1252.071289	43040.367188
5.000000	1250.994141	42497.082031
5.000000	1249.916992	42594.789063
5.000000	1248.839844	42699.433594
5.000000	1247.761719	42894.859375
5.000000	1246.683594	42927.203125
5.000000	1245.605469	42777.949219
5.000000	1244.527344	42416.964844
5.000000	1243.448242	42235.308594
5.000000	1242.369141	42088.625000
5.000000	1241.290039	42302.507813
5.000000	1240.210938	41767.539063
5.000000	1239.130859	42181.324219
5.000000	1238.050781	42506.597656
5.000000	1236.970703	42185.714844
5.000000	1235.890625	42176.285156
5.000000	1234.810547	43086.660156
5.000000	1233.729492	43504.316406
5.000000	1232.648438	43482.980469
5.000000	1231.566406	43800.539063
5.000000	1230.485352	44090.105469
5.000000	1229.403320	44409.699219
5.000000	1228.321289	44397.441406
5.000000	1227.239258	44795.667969
5.000000	1226.156250	44667.390625
5.000000	1225.073242	45491.890625
5.000000	1223.990234	45444.621094
5.000000	1222.907227	46243.085938
5.000000	1221.823242	46142.378906
5.000000	1220.740234	46852.312500
5.000000	1219.656250	47601.285156
5.000000	1218.571289	48079.066406
5.000000	1217.487305	48350.648438
5.000000	1216.402344	48786.390625
5.000000	1215.317383	49092.382813
5.000000	1214.232422	48935.660156
5.000000	1213.146484	49283.093750
5.000000	1212.060547	49521.710938
5.000000	1210.974609	49200.878906
5.000000	1209.888672	50010.167969
5.000000	1208.802734	50128.312500
5.000000	1207.715820	50447.351563
5.000000	1206.628906	50556.097656
5.000000	1205.541992	50655.558594
5.000000	1204.454102	50988.097656
5.000000	1203.366211	50888.945313
5.000000	1202.278320	51149.753906
5.000000	1201.190430	52256.972656
5.000000	1200.101563	53280.671875
5.000000	1199.013672	53337.855469
5.000000	1197.924805	54326.265625
5.000000	1196.834961	55735.957031
5.000000	1195.746094	58181.835938
5.000000	1194.656250	60202.753906
5.000000	1193.566406	63176.207031
5.000000	1192.476563	65584.203125
5.000000	1191.385742	68985.562500
5.000000	1190.294922	72148.335938
5.000000	1189.204102	74623.992188
5.000000	1188.113281	78333.851563
5.000000	1187.021484	81414.164063
5.000000	1185.930664	84090.687500
5.000000	1184.838867	86195.875000
5.000000	1183.746094	88888.476563
5.000000	1182.654297	92266.914063
5.000000	1181.561523	95264.757813
5.000000	1180.468750	99053.632813
5.000000	1179.375977	103440.117188
5.000000	1178.282227	108102.398438
5.000000	1177.188477	112076.289063
5.000000	1176.094727	115926.750000
5.000000	1175.000977	119885.585938
5.000000	1173.906250	122551.281250
5.000000	1172.811523	124938.289063
5.000000	1171.716797	125602.429688
5.000000	1170.622070	123511.125000
5.000000	1169.526367	121088.468750
5.000000	1168.431641	117186.859375
5.000000	1167.334961	113236.601563
5.000000	1166.239258	107943.867188
5.000000	1165.143555	102559.640625
5.000000	1164.046875	97351.812500
5.000000	1162.950195	92739.054688
5.000000	1161.852539	88123.789063
5.000000	1160.755859	82764.898438
5.000000	1159.658203	78620.507813
5.000000	1158.560547	74194.476563
5.000000	1157.461914	70067.601563
5.000000	1156.364258	66689.914063
5.000000	1155.265625	63409.718750
5.000000	1154.166992	61049.312500
5.000000	1153.067383	58502.695313
5.000000	1151.967773	56445.855469
5.000000	1150.869141	54864.769531
5.000000	1149.768555	53272.980469
5.000000	1148.668945	52507.910156
5.000000	1147.568359	51617.710938
5.000000	1146.467773	51097.390625
5.000000	1145.367188	50385.761719
5.000000	1144.266602	49717.765625
5.000000	1143.165039	49241.519531
5.000000	1142.063477	48820.171875
5.000000	1140.961914	48592.652344
5.000000	1139.859375	47939.316406
5.000000	1138.757813	47491.214844
5.000000	1137.655273	47409.839844
5.000000	1136.551758	46789.070313
5.000000	1135.449219	46430.265625
5.000000	1134.345703	45953.320313
5.000000	1133.242188	45478.859375
5.000000	1132.138672	45086.476563
5.000000	1131.034180	44562.402344
5.000000	1129.929688	43936.281250
5.000000	1128.825195	43617.222656
5.000000	1127.720703	43007.496094
5.000000	1126.616211	42716.042969
5.000000	1125.510742	42263.484375
5.000000	1124.405273	42088.109375
5.000000	1123.298828	42067.164063
5.000000	1122.193359	41891.906250
5.000000	1121.086914	42011.671875
5.000000	1119.980469	42167.671875
5.000000	1118.873047	41987.964844
5.000000	1117.766602	41871.820313
5.000000	1116.659180	42104.800781
5.000000	1115.551758	42421.523438
5.000000	1114.443359	42753.957031
5.000000	1113.335938	42528.996094
5.000000	1112.227539	43320.972656
5.000000	1111.118164	43455.976563
5.000000	1110.009766	44000.632813
5.000000	1108.900391	44404.722656
5.000000	1107.791016	44636.667969
5.000000	1106.681641	44302.976563
5.000000	1105.572266	44240.824219
5.000000	1104.461914	43500.382813
5.000000	1103.351563	42527.437500
5.000000	1102.241211	41805.792969
5.000000	1101.129883	41233.605469
5.000000	1100.018555	40386.078125
5.000000	1098.907227	39807.695313
5.000000	1097.795898	39270.210938
5.000000	1096.683594	38396.617188
5.000000	1095.572266	38274.968750
5.000000	1094.458984	37661.480469
5.000000	1093.346680	37348.296875
5.000000	1092.234375	36875.128906
5.000000	1091.121094	37006.464844
5.000000	1090.006836	36375.781250
5.000000	1088.893555	36430.539063
5.000000	1087.779297	36431.187500
5.000000	1086.666016	36422.820313
5.000000	1085.550781	36452.742188
5.000000	1084.436523	36084.089844
5.000000	1083.321289	36267.152344
5.000000	1082.206055	35849.187500
5.000000	1081.090820	35973.707031
5.000000	1079.974609	35427.765625
5.000000	1078.859375	35426.363281
5.000000	1077.743164	35085.417969
5.000000	1076.625977	34677.179688
5.000000	1075.509766	34435.449219
5.000000	1074.392578	34661.218750
5.000000	1073.275391	34192.691406
5.000000	1072.158203	33814.218750
5.000000	1071.040039	33797.449219
5.000000	1069.921875	33715.574219
5.000000	1068.803711	33570.890625
5.000000	1067.685547	33854.871094
5.000000	1066.566406	33378.183594
5.000000	1065.447266	33457.960938
5.000000	1064.328125	33376.242188
5.000000	1063.208008	33574.796875
5.000000	1062.088867	33448.253906
5.000000	1060.968750	33146.980469
5.000000	1059.847656	32989.222656
5.000000	1058.727539	32959.207031
5.000000	1057.606445	32857.542969
5.000000	1056.485352	32800.699219
5.000000	1055.364258	32117.156250
5.000000	1054.242188	32324.558594
5.000000	1053.120117	32305.900391
5.000000	1051.998047	31862.267578
5.000000	1050.875977	32015.904297
5.000000	1049.752930	31849.763672
5.000000	1048.629883	32103.910156
5.000000	1047.506836	32080.835938
5.000000	1046.383789	31778.501953
5.000000	1045.259766	31974.404297
5.000000	1044.135742	32250.603516
5.000000	1043.011719	32135.966797
5.000000	1041.886719	32119.591797
5.000000	1040.762695	32181.326172
5.000000	1039.637695	32347.886719
5.000000	1038.511719	32286.853516
5.000000	1037.386719	32094.273438
5.000000	1036.260742	32180.466797
5.000000	1035.134766	32030.345703
5.000000	1034.007813	31996.169922
5.000000	1032.881836	31665.691406
5.000000	1031.754883	31863.259766
5.000000	1030.627930	31388.208984
5.000000	1029.500000	31202.806641
5.000000	1028.372070	30932.902344
5.000000	1027.245117	30752.136719
5.000000	1026.116211	31201.078125
5.000000	1024.988281	30949.146484
5.000000	1023.859375	31142.089844
5.000000	1022.730469	31443.880859
5.000000	1021.601563	31578.820313
5.000000	1020.471680	31758.138672
5.000000	1019.341797	31510.798828
5.000000	1018.211914	31590.087891
5.000000	1017.082031	32180.095703
5.000000	1015.951172	31979.443359
5.000000	1014.820313	32205.054688
5.000000	1013.689453	31869.113281
5.000000	1012.557617	32387.498047
5.000000	1011.426758	32546.302734
5.000000	1010.293945	32527.623047
5.000000	1009.162109	32861.460938
5.000000	1008.030273	33099.832031
5.000000	1006.897461	33038.917969
5.000000	1005.764648	33365.746094
5.000000	1004.630859	33087.722656
5.000000	1003.498047	33239.437500
5.000000	1002.364258	33539.410156
5.000000	1001.230469	34005.250000
5.000000	1000.095703	34189.824219
5.000000	998.960938	34164.132813
5.000000	997.826172	34450.324219
5.000000	996.691406	35278.164063
5.000000	995.556641	34365.664063
5.000000	994.420898	34609.601563
5.000000	993.285156	34513.105469
5.000000	992.148438	34493.972656
5.000000	991.012695	34238.507813
5.000000	989.875977	33775.582031
5.000000	988.739258	34006.101563
5.000000	987.601563	34322.593750
5.000000	986.463867	33709.906250
5.000000	985.326172	34260.167969
5.000000	984.188477	34805.757813
5.000000	983.049805	35553.960938
5.000000	981.912109	35962.296875
5.000000	980.773438	36672.402344
5.000000	979.633789	36926.019531
5.000000	978.495117	37470.320313
5.000000	977.355469	38087.050781
5.000000	976.214844	39441.175781
5.000000	975.075195	39337.238281
5.000000	973.934570	39840.828125
5.000000	972.793945	39686.222656
5.000000	971.653320	40198.285156
5.000000	970.511719	40173.425781
5.000000	969.370117	39543.863281
5.000000	968.228516	39398.250000
5.000000	967.086914	39270.281250
5.000000	965.944336	38551.269531
5.000000	964.801758	38535.593750
5.000000	963.659180	38320.050781
5.000000	962.516602	38513.035156
5.000000	961.373047	38582.984375
5.000000	960.229492	38532.183594
5.000000	959.084961	38351.933594
5.000000	957.941406	37820.765625
5.000000	956.796875	37956.589844
5.000000	955.652344	37169.203125
5.000000	954.506836	37408.144531
5.000000	953.362305	36752.753906
5.000000	952.216797	36776.933594
5.000000	951.070313	36950.066406
5.000000	949.924805	36667.558594
5.000000	948.778320	36376.425781
5.000000	947.631836	36218.957031
5.000000	946.485352	36192.878906
5.000000	945.337891	36217.132813
5.000000	944.190430	36271.996094
5.000000	943.042969	36681.132813
5.000000	941.894531	36818.937500
5.000000	940.747070	36821.144531
5.000000	939.597656	36945.730469
5.000000	938.449219	36982.855469
5.000000	937.300781	36462.921875
5.000000	936.151367	36969.679688
5.000000	935.001953	36947.808594
5.000000	933.851563	36541.750000
5.000000	932.701172	36277.734375
5.000000	931.550781	36179.664063
5.000000	930.400391	35885.312500
5.000000	929.250000	35802.636719
5.000000	928.098633	36016.519531
5.000000	926.947266	37209.019531
5.000000	925.794922	38540.421875
5.000000	924.642578	40160.960938
5.000000	923.490234	43183.507813
5.000000	922.337891	46609.667969
5.000000	921.185547	49899.203125
5.000000	920.032227	52832.367188
5.000000	918.878906	55183.089844
5.000000	917.724609	56233.832031
5.000000	916.571289	56529.296875
5.000000	915.416992	56498.421875
5.000000	914.262695	55428.339844
5.000000	913.107422	54358.761719
5.000000	911.952148	53417.898438
5.000000	910.796875	53031.472656
5.000000	909.641602	51737.324219
5.000000	908.485352	49900.914063
5.000000	907.329102	47407.570313
5.000000	906.172852	44854.636719
5.000000	905.016602	42504.722656
5.000000	903.859375	40535.574219
5.000000	902.702148	38873.179688
5.000000	901.544922	37441.421875
5.000000	900.386719	35990.835938
5.000000	899.228516	34874.707031
5.000000	898.070313	33869.617188
5.000000	896.911133	33623.210938
5.000000	895.752930	32958.921875
5.000000	894.593750	32879.570313
5.000000	893.433594	32700.671875
5.000000	892.274414	32500.214844
5.000000	891.114258	32068.332031
5.000000	889.954102	32030.353516
5.000000	888.792969	32191.353516
5.000000	887.632813	32017.138672
5.000000	886.470703	31903.529297
5.000000	885.309570	31995.277344
5.000000	884.148438	31773.689453
5.000000	882.986328	32390.314453
5.000000	881.824219	32376.046875
5.000000	880.661133	32616.550781
5.000000	879.498047	32926.003906
5.000000	878.334961	32702.281250
5.000000	877.171875	32135.623047
5.000000	876.007813	31851.792969
5.000000	874.843750	31867.841797
5.000000	873.679688	31359.990234
5.000000	872.515625	31149.824219
5.000000	871.350586	30799.689453
5.000000	870.185547	30996.925781
5.000000	869.020508	30481.142578
5.000000	867.854492	30256.300781
5.000000	866.688477	30950.810547
5.000000	865.522461	30872.312500
5.000000	864.356445	31267.234375
5.000000	863.189453	31350.033203
5.000000	862.022461	32060.796875
5.000000	860.854492	32409.978516
5.000000	859.687500	32430.087891
5.000000	858.519531	32955.234375
5.000000	857.351563	32620.666016
5.000000	856.182617	32636.400391
5.000000	855.013672	32218.304688
5.000000	853.844727	32352.208984
5.000000	852.675781	32597.666016
5.000000	851.505859	32488.900391
5.000000	850.335938	32161.341797
5.000000	849.166016	32314.417969
5.000000	847.995117	32347.324219
5.000000	846.825195	32502.416016
5.000000	845.653320	32449.513672
5.000000	844.482422	32649.498047
5.000000	843.310547	32913.652344
5.000000	842.138672	33209.800781
5.000000	840.966797	33520.792969
5.000000	839.793945	33598.277344
5.000000	838.622070	34131.605469
5.000000	837.448242	34247.410156
5.000000	836.275391	34397.382813
5.000000	835.101563	34521.609375
5.000000	833.927734	34737.718750
5.000000	832.753906	35725.429688
5.000000	831.579102	36464.742188
5.000000	830.404297	37406.671875
5.000000	829.229492	38363.089844
5.000000	828.054688	38938.894531
5.000000	826.878906	39172.796875
5.000000	825.703125	39327.597656
5.000000	824.526367	38790.882813
5.000000	823.350586	37923.726563
5.000000	822.173828	36728.500000
5.000000	820.996094	36175.738281
5.000000	819.819336	35708.519531
5.000000	818.641602	35290.546875
5.000000	817.463867	35676.136719
5.000000	816.285156	35684.449219
5.000000	815.107422	35875.925781
5.000000	813.928711	36290.886719
5.000000	812.749023	37110.117188
5.000000	811.570313	37988.539063
5.000000	810.390625	38862.265625
5.000000	809.209961	39599.414063
5.000000	808.030273	40382.984375
5.000000	806.849609	41125.765625
5.000000	805.668945	42155.152344
5.000000	804.488281	43196.773438
5.000000	803.306641	43753.453125
5.000000	802.125000	44983.210938
5.000000	800.943359	45275.832031
5.000000	799.760742	45262.578125
5.000000	798.578125	44166.804688
5.000000	797.395508	44147.453125
5.000000	796.211914	43680.453125
5.000000	795.029297	42607.070313
5.000000	793.844727	41417.578125
5.000000	792.661133	40593.304688
5.000000	791.476563	39716.445313
5.000000	790.291992	38767.968750
5.000000	789.107422	38171.609375
5.000000	787.922852	36679.671875
5.000000	786.737305	35700.867188
5.000000	785.550781	34388.078125
5.000000	784.365234	33585.968750
5.000000	783.178711	32581.132813
5.000000	781.992188	32200.792969
5.000000	780.805664	31636.654297
5.000000	779.618164	31104.501953
5.000000	778.430664	30496.515625
5.000000	777.243164	30252.292969
5.000000	776.054688	30120.156250
5.000000	774.866211	30478.097656
5.000000	773.677734	30451.542969
5.000000	772.489258	30769.103516
5.000000	771.299805	30297.152344
5.000000	770.110352	30247.437500
5.000000	768.919922	30066.955078
5.000000	767.730469	30122.761719
5.000000	766.540039	30513.785156
5.000000	765.348633	31159.671875
5.000000	764.158203	32599.730469
5.000000	762.966797	34940.820313
5.000000	761.774414	37617.765625
5.000000	760.583008	39541.582031
5.000000	759.390625	40592.828125
5.000000	758.198242	39740.804688
5.000000	757.005859	38529.367188
5.000000	755.812500	37326.941406
5.000000	754.619141	35834.863281
5.000000	753.424805	34715.703125
5.000000	752.231445	33662.261719
5.000000	751.037109	33286.078125
5.000000	749.842773	33038.242188
5.000000	748.647461	32557.359375
5.000000	747.452148	31826.800781
5.000000	746.256836	31715.972656
5.000000	745.060547	31439.371094
5.000000	743.865234	31492.369141
5.000000	742.668945	31369.105469
5.000000	741.471680	31308.822266
5.000000	740.274414	31414.222656
5.000000	739.077148	32121.234375
5.000000	737.879883	32660.218750
5.000000	736.681641	33731.148438
5.000000	735.484375	35777.730469
5.000000	734.285156	38332.199219
5.000000	733.086914	41243.417969
5.000000	731.887695	42980.945313
5.000000	730.688477	44468.558594
5.000000	729.488281	45311.015625
5.000000	728.288086	46408.226563
5.000000	727.087891	46530.398438
5.000000	725.887695	46556.335938
5.000000	724.686523	45769.199219
5.000000	723.485352	44106.914063
5.000000	722.284180	43001.148438
5.000000	721.082031	40680.410156
5.000000	719.879883	39204.386719
5.000000	718.677734	37140.429688
5.000000	717.474609	35196.464844
5.000000	716.272461	33462.113281
5.000000	715.068359	32047.777344
5.000000	713.865234	31397.396484
5.000000	712.661133	30538.853516
5.000000	711.457031	30122.615234
5.000000	710.251953	29481.533203
5.000000	709.047852	28938.681641
5.000000	707.842773	28448.169922
5.000000	706.636719	28520.099609
5.000000	705.431641	28044.503906
5.000000	704.225586	28004.107422
5.000000	703.018555	27782.712891
5.000000	701.812500	27981.605469
5.000000	700.605469	27812.308594
5.000000	699.397461	27761.597656
5.000000	698.190430	27658.945313
5.000000	696.982422	28277.406250
5.000000	695.774414	28421.886719
5.000000	694.565430	28157.128906
5.000000	693.356445	28511.273438
5.000000	692.147461	28290.212891
5.000000	690.938477	28202.082031
5.000000	689.728516	28153.414063
5.000000	688.518555	28206.408203
5.000000	687.308594	28485.410156
5.000000	686.097656	28270.833984
5.000000	684.886719	28091.597656
5.000000	683.674805	28059.574219
5.000000	682.463867	28013.060547
5.000000	681.251953	28755.667969
5.000000	680.040039	28810.451172
5.000000	678.827148	28896.251953
5.000000	677.614258	29317.271484
5.000000	676.401367	29262.195313
5.000000	675.187500	29033.390625
5.000000	673.973633	29332.027344
5.000000	672.759766	30180.445313
5.000000	671.545898	30557.169922
5.000000	670.331055	30834.509766
5.000000	669.116211	31590.980469
5.000000	667.900391	32080.630859
5.000000	666.684570	32516.339844
5.000000	665.468750	32592.640625
5.000000	664.252930	32767.953125
5.000000	663.036133	32939.046875
5.000000	661.819336	32582.000000
5.000000	660.602539	32268.435547
5.000000	659.384766	32707.517578
5.000000	658.166992	32305.445313
5.000000	656.948242	32913.246094
5.000000	655.730469	33205.546875
5.000000	654.511719	33087.847656
5.000000	653.291992	33176.101563
5.000000	652.073242	33461.914063
5.000000	650.853516	33284.546875
5.000000	649.633789	33267.738281
5.000000	648.413086	33724.007813
5.000000	647.192383	33737.929688
5.000000	645.971680	34185.605469
5.000000	644.750000	34633.046875
5.000000	643.528320	34669.304688
5.000000	642.306641	34837.007813
5.000000	641.084961	35166.855469
5.000000	639.862305	35381.554688
5.000000	638.639648	35846.550781
5.000000	637.416016	36011.699219
5.000000	636.192383	36379.855469
5.000000	634.968750	36747.816406
5.000000	633.745117	37004.855469
5.000000	632.520508	36536.074219
5.000000	631.295898	37092.234375
5.000000	630.070313	36810.109375
5.000000	628.844727	36562.945313
5.000000	627.619141	36446.964844
5.000000	626.393555	36607.421875
5.000000	625.166992	36710.476563
5.000000	623.940430	36838.027344
5.000000	622.712891	36693.429688
5.000000	621.486328	36761.593750
5.000000	620.258789	37136.410156
5.000000	619.030273	37582.566406
5.000000	617.802734	37513.511719
5.000000	616.573242	37895.988281
5.000000	615.344727	38535.617188
5.000000	614.115234	38041.617188
10.000000	1722.566406	18239.542969
10.000000	1721.590820	18396.337891
10.000000	1720.613281	18495.408203
10.000000	1719.636719	18550.757813
10.000000	1718.659180	18246.445313
10.000000	1717.682617	18350.617188
10.000000	1716.705078	18534.345703
10.000000	1715.727539	18676.921875
10.000000	1714.749023	18685.966797
10.000000	1713.771484	18569.261719
10.000000	1712.792969	18791.275391
10.000000	1711.814453	19056.804688
10.000000	1710.835938	18822.115234
10.000000	1709.856445	18831.111328
10.000000	1708.877930	18737.558594
10.000000	1707.898438	19002.876953
10.000000	1706.918945	19019.513672
10.000000	1705.939453	19072.011719
10.000000	1704.958984	19037.392578
10.000000	1703.979492	19315.232422
10.000000	1702.999023	19262.650391
10.000000	1702.018555	19199.849609
10.000000	1701.038086	19503.074219
10.000000	1700.056641	19373.712891
10.000000	1699.076172	19464.427734
10.000000	1698.094727	19399.070313
10.000000	1697.113281	19719.902344
10.000000	1696.131836	19782.357422
10.000000	1695.149414	19486.900391
10.000000	1694.167969	19628.605469
10.000000	1693.185547	19716.589844
10.000000	1692.203125	19715.119141
10.000000	1691.219727	19905.214844
10.000000	1690.237305	19781.123047
10.000000	1689.253906	19802.613281
10.000000	1688.270508	20125.308594
10.000000	1687.287109	19957.857422
10.000000	1686.303711	19953.775391
10.000000	1685.320313	20327.257813
10.000000	1684.335938	20386.863281
10.000000	1683.351563	20232.236328
10.000000	1682.367188	20585.031250
10.000000	1681.382813	20463.560547
10.000000	1680.397461	20706.574219
10.000000	1679.412109	20709.974609
10.000000	1678.426758	20935.001953
10.000000	1677.441406	21096.259766
10.000000	1676.456055	21277.822266
10.000000	1675.469727	21484.767578
10.000000	1674.483398	21360.726563
10.000000	1673.497070	21692.263672
10.000000	1672.510742	21784.494141
10.000000	1671.524414	21734.232422
10.000000	1670.537109	22126.519531
10.000000	1669.549805	21979.580078
10.000000	1668.562500	22206.406250
10.000000	1667.575195	22395.011719
10.000000	1666.587891	22184.572266
10.000000	1665.599609	22446.779297
10.000000	1664.611328	22236.410156
10.000000	1663.623047	22561.986328
10.000000	1662.634766	22491.326172
10.000000	1661.646484	23090.876953
10.000000	1660.657227	22979.523438
10.000000	1659.667969	23195.554688
10.000000	1658.678711	23611.917969
10.000000	1657.689453	23173.314453
10.000000	1656.699219	23625.009766
10.000000	1655.708984	24053.699219
10.000000	1654.718750	24010.714844
10.000000	1653.728516	24347.904297
10.000000	1652.738281	24763.501953
10.000000	1651.747070	24707.724609
10.000000	1650.756836	24667.164063
10.000000	1649.765625	24727.910156
10.000000	1648.773438	24945.597656
10.000000	1647.782227	25256.851563
10.000000	1646.790039	25689.449219
10.000000	1645.798828	25744.863281
10.000000	1644.806641	25995.039063
10.000000	1643.813477	26687.710938
10.000000	1642.821289	27026.083984
10.000000	1641.828125	27000.267578
10.000000	1640.834961	27305.572266
10.000000	1639.841797	28197.029297
10.000000	1638.848633	28416.052734
10.000000	1637.854492	29248.806641
10.000000	1636.861328	29808.458984
10.000000	1635.867188	30082.554688
10.000000	1634.873047	30856.375000
10.000000	1633.877930	31526.390625
10.000000	1632.883789	32208.742188
10.000000	1631.888672	32618.335938
10.000000	1630.893555	33908.058594
10.000000	1629.898438	34352.433594
10.000000	1628.902344	35600.914063
10.000000	1627.907227	36637.128906
10.000000	1626.911133	37302.429688
10.000000	1625.915039	38985.425781
10.000000	1624.918945	40010.207031
10.000000	1623.921875	41868.242188
10.000000	1622.924805	44088.117188
10.000000	1621.928711	46352.386719
10.000000	1620.930664	49443.839844
10.000000	1619.933594	52164.066406
10.000000	1618.936523	55351.144531
10.000000	1617.938477	59060.125000
10.000000	1616.940430	61852.085938
10.000000	1615.942383	63546.554688
10.000000	1614.943359	65677.742188
10.000000	1613.945313	67159.570313
10.000000	1612.946289	67590.367188
10.000000	1611.947266	67385.335938
10.000000	1610.948242	66866.398438
10.000000	1609.948242	65368.238281
10.000000	1608.949219	64272.433594
10.000000	1607.949219	62529.417969
10.000000	1606.949219	61216.296875
10.000000	1605.948242	60515.984375
10.000000	1604.948242	59996.582031
10.000000	1603.947266	59984.054688
10.000000	1602.946289	60194.710938
10.000000	1601.945313	60247.324219
10.000000	1600.944336	61107.046875
10.000000	1599.942383	62349.843750
10.000000	1598.940430	63451.800781
10.000000	1597.938477	65718.148438
10.000000	1596.936523	68041.148438
10.000000	1595.934570	70268.023438
10.000000	1594.931641	73487.843750
10.000000	1593.928711	76498.570313
10.000000	1592.925781	80196.195313
10.000000	1591.922852	84780.460938
10.000000	1590.918945	88789.968750
10.000000	1589.915039	93475.531250
10.000000	1588.911133	97411.515625
10.000000	1587.907227	101998.296875
10.000000	1586.903320	106653.125000
10.000000	1585.898438	111478.414063
10.000000	1584.894531	114385.492188
10.000000	1583.889648	117723.460938
10.000000	1582.883789	119494.257813
10.000000	1581.878906	120560.234375
10.000000	1580.873047	120729.625000
10.000000	1579.867188	119873.234375
10.000000	1578.861328	118538.117188
10.000000	1577.855469	116355.398438
10.000000	1576.848633	112981.414063
10.000000	1575.842773	110356.906250
10.000000	1574.835938	107556.476563
10.000000	1573.828125	104211.367188
10.000000	1572.821289	101104.390625
10.000000	1571.813477	98840.820313
10.000000	1570.805664	95995.312500
10.000000	1569.797852	93138.546875
10.000000	1568.790039	90800.867188
10.000000	1567.782227	89293.125000
10.000000	1566.773438	88144.390625
10.000000	1565.764648	86354.156250
10.000000	1564.755859	84805.984375
10.000000	1563.747070	83885.242188
10.000000	1562.737305	82763.453125
10.000000	1561.727539	81381.078125
10.000000	1560.717773	79957.023438
10.000000	1559.708008	79137.453125
10.000000	1558.697266	77625.015625
10.000000	1557.687500	75981.546875
10.000000	1556.676758	74842.929688
10.000000	1555.666016	73751.968750
10.000000	1554.654297	72964.328125
10.000000	1553.643555	72127.375000
10.000000	1552.631836	71437.179688
10.000000	1551.620117	71226.085938
10.000000	1550.608398	69799.671875
10.000000	1549.596680	69608.843750
10.000000	1548.583984	67746.984375
10.000000	1547.571289	67564.093750
10.000000	1546.558594	66367.640625
10.000000	1545.545898	66140.507813
10.000000	1544.532227	65685.562500
10.000000	1543.518555	64685.902344
10.000000	1542.504883	64082.867188
10.000000	1541.491211	65299.738281
10.000000	1540.477539	65469.078125
10.000000	1539.462891	65823.937500
10.000000	1538.448242	66826.875000
10.000000	1537.433594	67624.070313
10.000000	1536.418945	68440.703125
10.000000	1535.404297	69311.382813
10.000000	1534.388672	69724.351563
10.000000	1533.373047	70003.679688
10.000000	1532.357422	70455.859375
10.000000	1531.340820	70697.843750
10.000000	1530.325195	69788.718750
10.000000	1529.308594	71104.929688
10.000000	1528.291992	69749.218750
10.000000	1527.275391	70941.453125
10.000000	1526.257813	70785.726563
10.000000	1525.240234	71133.390625
10.000000	1524.223633	71784.320313
10.000000	1523.205078	71998.437500
10.000000	1522.187500	71997.929688
10.000000	1521.168945	71935.789063
10.000000	1520.151367	72497.234375
10.000000	1519.132813	72927.843750
10.000000	1518.113281	71862.804688
10.000000	1517.094727	72337.687500
10.000000	1516.075195	72477.437500
10.000000	1515.055664	71789.867188
10.000000	1514.036133	71649.046875
10.000000	1513.016602	71808.523438
10.000000	1511.996094	71618.539063
10.000000	1510.975586	70774.265625
10.000000	1509.955078	71804.460938
10.000000	1508.934570	71376.062500
10.000000	1507.914063	71968.085938
10.000000	1506.892578	72525.437500
10.000000	1505.871094	72888.406250
10.000000	1504.849609	73516.562500
10.000000	1503.827148	73893.898438
10.000000	1502.805664	73973.914063
10.000000	1501.783203	74567.039063
10.000000	1500.760742	75096.085938
10.000000	1499.738281	74969.617188
10.000000	1498.714844	74941.343750
10.000000	1497.691406	74032.375000
10.000000	1496.668945	73651.117188
10.000000	1495.644531	72774.687500
10.000000	1494.621094	72212.421875
10.000000	1493.596680	71353.820313
10.000000	1492.573242	71093.507813
10.000000	1491.547852	71244.914063
10.000000	1490.523438	70685.882813
10.000000	1489.499023	71219.343750
10.000000	1488.473633	71963.140625
10.000000	1487.448242	72385.921875
10.000000	1486.422852	72889.289063
10.000000	1485.396484	73864.687500
10.000000	1484.371094	74504.500000
10.000000	1483.344727	75594.078125
10.000000	1482.318359	76199.000000
10.000000	1481.291992	76314.703125
10.000000	1480.264648	76674.773438
10.000000	1479.237305	77555.203125
10.000000	1478.209961	78769.968750
10.000000	1477.182617	78999.796875
10.000000	1476.155273	80098.945313
10.000000	1475.126953	80601.843750
10.000000	1474.098633	80574.789063
10.000000	1473.070313	80640.484375
10.000000	1472.041992	80286.453125
10.000000	1471.012695	80249.703125
10.000000	1469.983398	79117.835938
10.000000	1468.954102	78152.257813
10.000000	1467.924805	77579.617188
10.000000	1466.895508	76407.585938
10.000000	1465.865234	74838.835938
10.000000	1464.834961	73653.273438
10.000000	1463.804688	72721.539063
10.000000	1462.773438	71127.781250
10.000000	1461.743164	70847.093750
10.000000	1460.711914	69210.593750
10.000000	1459.680664	67489.609375
10.000000	1458.649414	66847.304688
10.000000	1457.617188	66336.632813
10.000000	1456.584961	65891.859375
10.000000	1455.552734	66315.382813
10.000000	1454.520508	66427.531250
10.000000	1453.488281	66658.726563
10.000000	1452.455078	67210.593750
10.000000	1451.421875	67837.539063
10.000000	1450.388672	68687.687500
10.000000	1449.355469	69632.179688
10.000000	1448.321289	69969.242188
10.000000	1447.288086	70318.289063
10.000000	1446.253906	70349.242188
10.000000	1445.218750	70972.234375
10.000000	1444.184570	70491.148438
10.000000	1443.149414	70393.476563
10.000000	1442.114258	70613.507813
10.000000	1441.079102	71044.359375
10.000000	1440.043945	71179.304688
10.000000	1439.007813	71500.789063
10.000000	1437.971680	71432.046875
10.000000	1436.935547	71639.468750
10.000000	1435.899414	72309.359375
10.000000	1434.862305	71669.054688
10.000000	1433.826172	72266.015625
10.000000	1432.789063	72262.500000
10.000000	1431.750977	71949.265625
10.000000	1430.713867	71892.585938
10.000000	1429.675781	71487.640625
10.000000	1428.637695	70202.664063
10.000000	1427.599609	69522.648438
10.000000	1426.561523	67716.554688
10.000000	1425.522461	66570.960938
10.000000	1424.483398	65582.898438
10.000000	1423.444336	64774.003906
10.000000	1422.405273	63277.183594
10.000000	1421.365234	62539.148438
10.000000	1420.326172	62489.394531
10.000000	1419.286133	62345.531250
10.000000	1418.245117	61936.312500
10.000000	1417.205078	62463.261719
10.000000	1416.164063	63286.628906
10.000000	1415.123047	63338.015625
10.000000	1414.082031	64011.359375
10.000000	1413.041016	64016.761719
10.000000	1411.999023	64465.546875
10.000000	1410.957031	64692.484375
10.000000	1409.915039	65138.507813
10.000000	1408.873047	65256.824219
10.000000	1407.831055	65331.742188
10.000000	1406.788086	66802.757813
10.000000	1405.745117	67308.085938
10.000000	1404.702148	69302.546875
10.000000	1403.658203	70182.367188
10.000000	1402.614258	70943.945313
10.000000	1401.571289	72539.562500
10.000000	1400.526367	74216.210938
10.000000	1399.482422	75036.484375
10.000000	1398.437500	76630.148438
10.000000	1397.393555	79145.648438
10.000000	1396.347656	80187.679688
10.000000	1395.302734	82031.304688
10.000000	1394.257813	83360.343750
10.000000	1393.211914	85416.101563
10.000000	1392.166016	86707.804688
10.000000	1391.120117	88440.421875
10.000000	1390.073242	88963.289063
10.000000	1389.026367	90210.187500
10.000000	1387.979492	90511.835938
10.000000	1386.932617	91069.843750
10.000000	1385.885742	90597.031250
10.000000	1384.837891	91183.515625
10.000000	1383.790039	91142.085938
10.000000	1382.742188	89982.140625
10.000000	1381.694336	89818.843750
10.000000	1380.645508	89945.296875
10.000000	1379.596680	89657.601563
10.000000	1378.547852	90310.476563
10.000000	1377.499023	90386.476563
10.000000	1376.450195	89984.031250
10.000000	1375.400391	90966.414063
10.000000	1374.350586	92120.507813
10.000000	1373.300781	93933.843750
10.000000	1372.250000	94854.945313
10.000000	1371.199219	95754.140625
10.000000	1370.148438	96378.210938
10.000000	1369.097656	96302.218750
10.000000	1368.046875	96161.781250
10.000000	1366.995117	95068.867188
10.000000	1365.943359	94277.164063
10.000000	1364.891602	93979.742188
10.000000	1363.839844	92971.500000
10.000000	1362.787109	92264.226563
10.000000	1361.735352	91089.859375
10.000000	1360.682617	89367.640625
10.000000	1359.628906	88428.000000
10.000000	1358.576172	87102.695313
10.000000	1357.522461	84855.906250
10.000000	1356.468750	83324.710938
10.000000	1355.415039	81396.460938
10.000000	1354.360352	79502.390625
10.000000	1353.306641	77856.703125
10.000000	1352.251953	76314.078125
10.000000	1351.196289	74141.562500
10.000000	1350.141602	73644.765625
10.000000	1349.085938	72589.250000
10.000000	1348.030273	71446.210938
10.000000	1346.974609	70422.531250
10.000000	1345.918945	69760.578125
10.000000	1344.862305	69210.601563
10.000000	1343.806641	68430.406250
10.000000	1342.749023	68498.515625
10.000000	1341.692383	68419.367188
10.000000	1340.635742	67813.156250
10.000000	1339.578125	67890.835938
10.000000	1338.520508	67837.953125
10.000000	1337.462891	67773.226563
10.000000	1336.404297	68095.179688
10.000000	1335.345703	66740.242188
10.000000	1334.287109	65992.898438
10.000000	1333.228516	65217.429688
10.000000	1332.169922	63600.921875
10.000000	1331.110352	62719.675781
10.000000	1330.050781	61523.734375
10.000000	1328.991211	60098.570313
10.000000	1327.930664	59116.839844
10.000000	1326.871094	58019.527344
10.000000	1325.810547	56423.269531
10.000000	1324.750000	55942.296875
10.000000	1323.688477	54808.539063
10.000000	1322.627930	54006.429688
10.000000	1321.566406	53613.792969
10.000000	1320.504883	52285.042969
10.000000	1319.443359	52507.539063
10.000000	1318.380859	52287.996094
10.000000	1317.318359	52125.253906
10.000000	1316.255859	52489.363281
10.000000	1315.193359	52796.621094
10.000000	1314.129883	52581.914063
10.000000	1313.067383	52945.664063
10.000000	1312.003906	53401.296875
10.000000	1310.939453	54364.050781
10.000000	1309.875977	55064.511719
10.000000	1308.811523	55703.332031
10.000000	1307.747070	57405.367188
10.000000	1306.682617	58347.507813
10.000000	1305.617188	60036.410156
10.000000	1304.552734	60899.777344
10.000000	1303.487305	62318.773438
10.000000	1302.421875	62910.363281
10.000000	1301.355469	64373.023438
10.000000	1300.290039	65472.445313
10.000000	1299.223633	66168.859375
10.000000	1298.157227	66486.054688
10.000000	1297.089844	66683.109375
10.000000	1296.023438	66696.585938
10.000000	1294.956055	65729.335938
10.000000	1293.888672	65893.484375
10.000000	1292.820313	64449.613281
10.000000	1291.752930	63269.605469
10.000000	1290.684570	62198.203125
10.000000	1289.616211	61505.500000
10.000000	1288.546875	60437.300781
10.000000	1287.478516	59510.460938
10.000000	1286.409180	58586.375000
10.000000	1285.339844	57859.855469
10.000000	1284.270508	57652.257813
10.000000	1283.200195	56602.492188
10.000000	1282.129883	56087.984375
10.000000	1281.059570	55916.078125
10.000000	1279.989258	55399.597656
10.000000	1278.918945	55244.320313
10.000000	1277.847656	54475.105469
10.000000	1276.776367	53649.992188
10.000000	1275.705078	52883.804688
10.000000	1274.632813	52256.128906
10.000000	1273.561523	51029.320313
10.000000	1272.489258	50985.210938
10.000000	1271.416016	50288.148438
10.000000	1270.343750	50124.886719
10.000000	1269.270508	50495.062500
10.000000	1268.197266	50673.285156
10.000000	1267.124023	51216.203125
10.000000	1266.050781	51850.046875
10.000000	1264.976563	52366.742188
10.000000	1263.902344	53210.347656
10.000000	1262.828125	53254.582031
10.000000	1261.753906	52819.964844
10.000000	1260.678711	52901.621094
10.000000	1259.603516	52439.250000
10.000000	1258.528320	52703.007813
10.000000	1257.452148	51916.503906
10.000000	1256.376953	51652.964844
10.000000	1255.300781	51492.171875
10.000000	1254.224609	50883.687500
10.000000	1253.147461	51334.000000
10.000000	1252.071289	50791.082031
10.000000	1250.994141	51297.136719
10.000000	1249.916992	52154.789063
10.000000	1248.839844	51693.570313
10.000000	1247.761719	51912.609375
10.000000	1246.683594	52077.988281
10.000000	1245.605469	51782.363281
10.000000	1244.527344	50488.406250
10.000000	1243.448242	50172.316406
10.000000	1242.369141	49523.691406
10.000000	1241.290039	48900.937500
10.000000	1240.210938	47713.402344
10.000000	1239.130859	48123.535156
10.000000	1238.050781	47406.199219
10.000000	1236.970703	46968.031250
10.000000	1235.890625	46945.917969
10.000000	1234.810547	47109.632813
10.000000	1233.729492	47345.253906
10.000000	1232.648438	47241.796875
10.000000	1231.566406	47444.781250
10.000000	1230.485352	47710.324219
10.000000	1229.403320	47771.574219
10.000000	1228.321289	47976.609375
10.000000	1227.239258	48745.089844
10.000000	1226.156250	49508.582031
10.000000	1225.073242	50487.304688
10.000000	1223.990234	51690.390625
10.000000	1222.907227	52012.464844
10.000000	1221.823242	52487.277344
10.000000	1220.740234	52718.695313
10.000000	1219.656250	53058.828125
10.000000	1218.571289	51704.269531
10.000000	1217.487305	51625.558594
10.000000	1216.402344	50811.058594
10.000000	1215.317383	50818.167969
10.000000	1214.232422	50788.265625
10.000000	1213.146484	49960.609375
10.000000	1212.060547	49933.218750
10.000000	1210.974609	50081.488281
10.000000	1209.888672	50331.367188
10.000000	1208.802734	50625.023438
10.000000	1207.715820	51500.597656
10.000000	1206.628906	51701.480469
10.000000	1205.541992	51920.734375
10.000000	1204.454102	52204.519531
10.000000	1203.366211	51692.019531
10.000000	1202.278320	51950.335938
10.000000	1201.190430	53087.363281
10.000000	1200.101563	53739.589844
10.000000	1199.013672	55313.757813
10.000000	1197.924805	57117.722656
10.000000	1196.834961	58909.347656
10.000000	1195.746094	61202.441406
10.000000	1194.656250	63623.496094
10.000000	1193.566406	66478.726563
10.000000	1192.476563	69231.351563
10.000000	1191.385742	71791.671875
10.000000	1190.294922	74946.906250
10.000000	1189.204102	77067.585938
10.000000	1188.113281	79647.390625
10.000000	1187.021484	82173.132813
10.000000	1185.930664	85431.226563
10.000000	1184.838867	87956.804688
10.000000	1183.746094	91657.984375
10.000000	1182.654297	96471.937500
10.000000	1181.561523	100316.539063
10.000000	1180.468750	104230.601563
10.000000	1179.375977	106721.492188
10.000000	1178.282227	109245.687500
10.000000	1177.188477	111982.187500
10.000000	1176.094727	113627.445313
10.000000	1175.000977	115822.562500
10.000000	1173.906250	116106.046875
10.000000	1172.811523	116251.796875
10.000000	1171.716797	116014.601563
10.000000	1170.622070	115970.031250
10.000000	1169.526367	114626.140625
10.000000	1168.431641	112771.929688
10.000000	1167.334961	110925.421875
10.000000	1166.239258	108662.945313
10.000000	1165.143555	105639.070313
10.000000	1164.046875	103555.046875
10.000000	1162.950195	100291.093750
10.000000	1161.852539	95973.843750
10.000000	1160.755859	92735.945313
10.000000	1159.658203	88962.062500
10.000000	1158.560547	85916.968750
10.000000	1157.461914	82356.632813
10.000000	1156.364258	80294.828125
10.000000	1155.265625	77973.484375
10.000000	1154.166992	75463.570313
10.000000	1153.067383	73875.179688
10.000000	1151.967773	73193.984375
10.000000	1150.869141	71780.304688
10.000000	1149.768555	70109.359375
10.000000	1148.668945	69726.085938
10.000000	1147.568359	69235.757813
10.000000	1146.467773	67997.570313
10.000000	1145.367188	67382.429688
10.000000	1144.266602	67750.117188
10.000000	1143.165039	67923.898438
10.000000	1142.063477	68357.351563
10.000000	1140.961914	69512.781250
10.000000	1139.859375	70531.015625
10.000000	1138.757813	70801.898438
10.000000	1137.655273	69151.210938
10.000000	1136.551758	66875.343750
10.000000	1135.449219	64423.019531
10.000000	1134.345703	61646.472656
10.000000	1133.242188	59817.382813
10.000000	1132.138672	58307.476563
10.000000	1131.034180	56848.269531
10.000000	1129.929688	55764.757813
10.000000	1128.825195	54270.421875
10.000000	1127.720703	52849.464844
10.000000	1126.616211	51356.464844
10.000000	1125.510742	50511.343750
10.000000	1124.405273	50132.031250
10.000000	1123.298828	49671.167969
10.000000	1122.193359	49405.671875
10.000000	1121.086914	49122.144531
10.000000	1119.980469	48897.714844
10.000000	1118.873047	49009.015625
10.000000	1117.766602	48786.972656
10.000000	1116.659180	48984.375000
10.000000	1115.551758	49254.199219
10.000000	1114.443359	49684.765625
10.000000	1113.335938	48950.816406
10.000000	1112.227539	49292.921875
10.000000	1111.118164	48998.632813
10.000000	1110.009766	48770.125000
10.000000	1108.900391	48376.503906
10.000000	1107.791016	48403.906250
10.000000	1106.681641	48324.968750
10.000000	1105.572266	47572.117188
10.000000	1104.461914	46215.906250
10.000000	1103.351563	45947.625000
10.000000	1102.241211	44967.558594
10.000000	1101.129883	43716.796875
10.000000	1100.018555	42952.281250
10.000000	1098.907227	42734.664063
10.000000	1097.795898	41912.011719
10.000000	1096.683594	40909.136719
10.000000	1095.572266	40107.582031
10.000000	1094.458984	39263.519531
10.000000	1093.346680	39114.648438
10.000000	1092.234375	38332.089844
10.000000	1091.121094	37570.175781
10.000000	1090.006836	37376.699219
10.000000	1088.893555	36712.261719
10.000000	1087.779297	36845.792969
10.000000	1086.666016	36587.273438
10.000000	1085.550781	36427.968750
10.000000	1084.436523	36030.046875
10.000000	1083.321289	35857.429688
10.000000	1082.206055	36022.492188
10.000000	1081.090820	35908.453125
10.000000	1079.974609	35884.449219
10.000000	1078.859375	36397.996094
10.000000	1077.743164	36205.238281
10.000000	1076.625977	36493.656250
10.000000	1075.509766	36447.046875
10.000000	1074.392578	37290.300781
10.000000	1073.275391	36926.757813
10.000000	1072.158203	36648.730469
10.000000	1071.040039	36887.296875
10.000000	1069.921875	37080.847656
10.000000	1068.803711	36147.570313
10.000000	1067.685547	36536.421875
10.000000	1066.566406	36561.648438
10.000000	1065.447266	36797.699219
10.000000	1064.328125	37432.789063
10.000000	1063.208008	38155.011719
10.000000	1062.088867	39441.730469
10.000000	1060.968750	39455.035156
10.000000	1059.847656	39082.988281
10.000000	1058.727539	37989.882813
10.000000	1057.606445	37002.523438
10.000000	1056.485352	35377.562500
10.000000	1055.364258	35062.742188
10.000000	1054.242188	34430.300781
10.000000	1053.120117	33462.558594
10.000000	1051.998047	32920.242188
10.000000	1050.875977	32883.558594
10.000000	1049.752930	32372.916016
10.000000	1048.629883	32090.498047
10.000000	1047.506836	31613.791016
10.000000	1046.383789	31271.351563
10.000000	1045.259766	30658.796875
10.000000	1044.135742	30783.449219
10.000000	1043.011719	30416.869141
10.000000	1041.886719	30351.787109
10.000000	1040.762695	30396.078125
10.000000	1039.637695	30534.048828
10.000000	1038.511719	30241.460938
10.000000	1037.386719	30432.917969
10.000000	1036.260742	30196.220703
10.000000	1035.134766	29794.685547
10.000000	1034.007813	29943.761719
10.000000	1032.881836	29847.693359
10.000000	1031.754883	29551.197266
10.000000	1030.627930	29546.560547
10.000000	1029.500000	29553.054688
10.000000	1028.372070	29461.603516
10.000000	1027.245117	29354.615234
10.000000	1026.116211	29801.656250
10.000000	1024.988281	29607.884766
10.000000	1023.859375	29569.863281
10.000000	1022.730469	29989.855469
10.000000	1021.601563	30569.685547
10.000000	1020.471680	30471.457031
10.000000	1019.341797	30662.097656
10.000000	1018.211914	30668.283203
10.000000	1017.082031	30636.712891
10.000000	1015.951172	31073.609375
10.000000	1014.820313	31139.617188
10.000000	1013.689453	31205.589844
10.000000	1012.557617	31435.707031
10.000000	1011.426758	31723.384766
10.000000	1010.293945	31906.697266
10.000000	1009.162109	32050.013672
10.000000	1008.030273	32377.232422
10.000000	1006.897461	32378.539063
10.000000	1005.764648	32752.048828
10.000000	1004.630859	32930.457031
10.000000	1003.498047	32907.265625
10.000000	1002.364258	33391.074219
10.000000	1001.230469	33383.269531
10.000000	1000.095703	33149.746094
10.000000	998.960938	33316.777344
10.000000	997.826172	32893.144531
10.000000	996.691406	32987.171875
10.000000	995.556641	32499.697266
10.000000	994.420898	32498.720703
10.000000	993.285156	31859.099609
10.000000	992.148438	32012.917969
10.000000	991.012695	32038.550781
10.000000	989.875977	32161.332031
10.000000	988.739258	32047.820313
10.000000	987.601563	32435.404297
10.000000	986.463867	32858.109375
10.000000	985.326172	33099.703125
10.000000	984.188477	33341.179688
10.000000	983.049805	34208.808594
10.000000	981.912109	34390.378906
10.000000	980.773438	34898.070313
10.000000	979.633789	34978.019531
10.000000	978.495117	35789.355469
10.000000	977.355469	36012.218750
10.000000	976.214844	36419.945313
10.000000	975.075195	36351.941406
10.000000	973.934570	36682.351563
10.000000	972.793945	36673.722656
10.000000	971.653320	37032.492188
10.000000	970.511719	37276.718750
10.000000	969.370117	37245.953125
10.000000	968.228516	37001.949219
10.000000	967.086914	37349.296875
10.000000	965.944336	37105.378906
10.000000	964.801758	37298.746094
10.000000	963.659180	36907.789063
10.000000	962.516602	36852.972656
10.000000	961.373047	36363.503906
10.000000	960.229492	36401.015625
10.000000	959.084961	36510.917969
10.000000	957.941406	36502.300781
10.000000	956.796875	36276.550781
10.000000	955.652344	35783.390625
10.000000	954.506836	35575.445313
10.000000	953.362305	35404.851563
10.000000	952.216797	35501.664063
10.000000	951.070313	35348.683594
10.000000	949.924805	35649.140625
10.000000	948.778320	35723.914063
10.000000	947.631836	35807.402344
10.000000	946.485352	36030.921875
10.000000	945.337891	36339.664063
10.000000	944.190430	36580.441406
10.000000	943.042969	37131.664063
10.000000	941.894531	37050.710938
10.000000	940.747070	37758.941406
10.000000	939.597656	37830.855469
10.000000	938.449219	37852.472656
10.000000	937.300781	37823.835938
10.000000	936.151367	37332.214844
10.000000	935.001953	36718.546875
10.000000	933.851563	35854.136719
10.000000	932.701172	35153.808594
10.000000	931.550781	34386.171875
10.000000	930.400391	34131.511719
10.000000	929.250000	34249.886719
10.000000	928.098633	34396.550781
10.000000	926.947266	34499.539063
10.000000	925.794922	35334.714844
10.000000	924.642578	36535.515625
10.000000	923.490234	38138.718750
10.000000	922.337891	40694.988281
10.000000	921.185547	43789.984375
10.000000	920.032227	46598.355469
10.000000	918.878906	48865.695313
10.000000	917.724609	50311.734375
10.000000	916.571289	50758.691406
10.000000	915.416992	50320.367188
10.000000	914.262695	49925.726563
10.000000	913.107422	48657.496094
10.000000	911.952148	47891.835938
10.000000	910.796875	47391.585938
10.000000	909.641602	46374.628906
10.000000	908.485352	45316.890625
10.000000	907.329102	43968.746094
10.000000	906.172852	43016.261719
10.000000	905.016602	41736.566406
10.000000	903.859375	40030.101563
10.000000	902.702148	38513.140625
10.000000	901.544922	37241.929688
10.000000	900.386719	36185.941406
10.000000	899.228516	34822.691406
10.000000	898.070313	33748.273438
10.000000	896.911133	32932.160156
10.000000	895.752930	32235.550781
10.000000	894.593750	32045.941406
10.000000	893.433594	31447.283203
10.000000	892.274414	31586.910156
10.000000	891.114258	31010.277344
10.000000	889.954102	31043.937500
10.000000	888.792969	31244.103516
10.000000	887.632813	31411.736328
10.000000	886.470703	31222.615234
10.000000	885.309570	32021.210938
10.000000	884.148438	32488.847656
10.000000	882.986328	33100.980469
10.000000	881.824219	32574.726563
10.000000	880.661133	32497.802734
10.000000	879.498047	32330.253906
10.000000	878.334961	31739.814453
10.000000	877.171875	31374.033203
10.000000	876.007813	31370.792969
10.000000	874.843750	30988.015625
10.000000	873.679688	30864.128906
10.000000	872.515625	30863.156250
10.000000	871.350586	30855.716797
10.000000	870.185547	30436.792969
10.000000	869.020508	30300.218750
10.000000	867.854492	30254.148438
10.000000	866.688477	30324.345703
10.000000	865.522461	30291.197266
10.000000	864.356445	30606.644531
10.000000	863.189453	31068.220703
10.000000	862.022461	31841.423828
10.000000	860.854492	31863.828125
10.000000	859.687500	32316.154297
10.000000	858.519531	33170.148438
10.000000	857.351563	33181.460938
10.000000	856.182617	33605.203125
10.000000	855.013672	33296.402344
10.000000	853.844727	33490.164063
10.000000	852.675781	33187.968750
10.000000	851.505859	33240.015625
10.000000	850.335938	33143.992188
10.000000	849.166016	33030.847656
10.000000	847.995117	32904.890625
10.000000	846.825195	32761.833984
10.000000	845.653320	33223.296875
10.000000	844.482422	32679.498047
10.000000	843.310547	33337.847656
10.000000	842.138672	33329.746094
10.000000	840.966797	33111.792969
10.000000	839.793945	33394.898438
10.000000	838.622070	33838.382813
10.000000	837.448242	33982.074219
10.000000	836.275391	34838.070313
10.000000	835.101563	34968.609375
10.000000	833.927734	34895.949219
10.000000	832.753906	34945.164063
10.000000	831.579102	34992.218750
10.000000	830.404297	35716.566406
10.000000	829.229492	35829.617188
10.000000	828.054688	36504.281250
10.000000	826.878906	36589.316406
10.000000	825.703125	37203.687500
10.000000	824.526367	36994.000000
10.000000	823.350586	36639.332031
10.000000	822.173828	36278.433594
10.000000	820.996094	35894.246094
10.000000	819.819336	35335.421875
10.000000	818.641602	34740.628906
10.000000	817.463867	35151.925781
10.000000	816.285156	35528.929688
10.000000	815.107422	35735.351563
10.000000	813.928711	36557.058594
10.000000	812.749023	37314.488281
10.000000	811.570313	37862.968750
10.000000	810.390625	38881.417969
10.000000	809.209961	39941.910156
10.000000	808.030273	41576.101563
10.000000	806.849609	43196.726563
10.000000	805.668945	44248.984375
10.000000	804.488281	44637.656250
10.000000	803.306641	44871.031250
10.000000	802.125000	45522.746094
10.000000	800.943359	45855.585938
10.000000	799.760742	46226.472656
10.000000	798.578125	46881.593750
10.000000	797.395508	47196.859375
10.000000	796.211914	46472.406250
10.000000	795.029297	44503.261719
10.000000	793.844727	42558.406250
10.000000	792.661133	41027.902344
10.000000	791.476563	39349.781250
10.000000	790.291992	38452.246094
10.000000	789.107422	36991.656250
10.000000	787.922852	35675.792969
10.000000	786.737305	34726.878906
10.000000	785.550781	33532.875000
10.000000	784.365234	32728.859375
10.000000	783.178711	31946.394531
10.000000	781.992188	31942.730469
10.000000	780.805664	31841.785156
10.000000	779.618164	30958.621094
10.000000	778.430664	30566.267578
10.000000	777.243164	30167.765625
10.000000	776.054688	29577.203125
10.000000	774.866211	29297.414063
10.000000	773.677734	28948.076172
10.000000	772.489258	29320.898438
10.000000	771.299805	29319.960938
10.000000	770.110352	28764.080078
10.000000	768.919922	28396.216797
10.000000	767.730469	28562.107422
10.000000	766.540039	28879.720703
10.000000	765.348633	29557.630859
10.000000	764.158203	30351.109375
10.000000	762.966797	32340.908203
10.000000	761.774414	34338.136719
10.000000	760.583008	35612.062500
10.000000	759.390625	36024.269531
10.000000	758.198242	35931.109375
10.000000	757.005859	34992.074219
10.000000	755.812500	34385.890625
10.000000	754.619141	33889.375000
10.000000	753.424805	32959.941406
10.000000	752.231445	32102.443359
10.000000	751.037109	31316.822266
10.000000	749.842773	30769.017578
10.000000	748.647461	30994.505859
10.000000	747.452148	31079.169922
10.000000	746.256836	31149.091797
10.000000	745.060547	31124.515625
10.000000	743.865234	30357.074219
10.000000	742.668945	30194.232422
10.000000	741.471680	29544.855469
10.000000	740.274414	29543.753906
10.000000	739.077148	29592.960938
10.000000	737.879883	30075.988281
10.000000	736.681641	30676.109375
10.000000	735.484375	32071.962891
10.000000	734.285156	33596.957031
10.000000	733.086914	35864.480469
10.000000	731.887695	37823.148438
10.000000	730.688477	39684.562500
10.000000	729.488281	40657.937500
10.000000	728.288086	40867.351563
10.000000	727.087891	40549.683594
10.000000	725.887695	39970.835938
10.000000	724.686523	39477.972656
10.000000	723.485352	38857.882813
10.000000	722.284180	38396.867188
10.000000	721.082031	36449.046875
10.000000	719.879883	34013.605469
10.000000	718.677734	32088.730469
10.000000	717.474609	30379.775391
10.000000	716.272461	29936.052734
10.000000	715.068359	29686.539063
10.000000	713.865234	29157.705078
10.000000	712.661133	28107.919922
10.000000	711.457031	27769.416016
10.000000	710.251953	27622.787109
10.000000	709.047852	27276.234375
10.000000	707.842773	27056.898438
10.000000	706.636719	27208.304688
10.000000	705.431641	27270.117188
10.000000	704.225586	27392.246094
10.000000	703.018555	27177.248047
10.000000	701.812500	26756.421875
10.000000	700.605469	26597.833984
10.000000	699.397461	26599.408203
10.000000	698.190430	26596.820313
10.000000	696.982422	26972.423828
10.000000	695.774414	27406.001953
10.000000	694.565430	27482.123047
10.000000	693.356445	26910.357422
10.000000	692.147461	26959.568359
10.000000	690.938477	26483.683594
10.000000	689.728516	26545.417969
10.000000	688.518555	26320.863281
10.000000	687.308594	26446.886719
10.000000	686.097656	26409.054688
10.000000	684.886719	26733.964844
10.000000	683.674805	26662.916016
10.000000	682.463867	26917.148438
10.000000	681.251953	27034.552734
10.000000	680.040039	27400.365234
10.000000	678.827148	27523.789063
10.000000	677.614258	27769.246094
10.000000	676.401367	28374.585938
10.000000	675.187500	28727.253906
10.000000	673.973633	29063.193359
10.000000	672.759766	29560.214844
10.000000	671.545898	29622.927734
10.000000	670.331055	30123.675781
10.000000	669.116211	30219.255859
10.000000	667.900391	30368.480469
10.000000	666.684570	30641.509766
10.000000	665.468750	30743.060547
10.000000	664.252930	30873.447266
10.000000	663.036133	30929.486328
10.000000	661.819336	30958.675781
10.000000	660.602539	30647.591797
10.000000	659.384766	30781.970703
10.000000	658.166992	30627.722656
10.000000	656.948242	30827.964844
10.000000	655.730469	31013.677734
10.000000	654.511719	31417.597656
10.000000	653.291992	31609.230469
10.000000	652.073242	31992.193359
10.000000	650.853516	31944.851563
10.000000	649.633789	32060.060547
10.000000	648.413086	32220.455078
10.000000	647.192383	32454.789063
10.000000	645.971680	32413.521484
10.000000	644.750000	32561.353516
10.000000	643.528320	33442.636719
10.000000	642.306641	34081.066406
10.000000	641.084961	35006.671875
10.000000	639.862305	34379.628906
10.000000	638.639648	33960.214844
10.000000	637.416016	33245.515625
10.000000	636.192383	32732.228516
10.000000	634.968750	32941.156250
10.000000	633.745117	32758.330078
10.000000	632.520508	33090.125000
10.000000	631.295898	32968.828125
10.000000	630.070313	32435.759766
10.000000	628.844727	32744.833984
10.000000	627.619141	32627.794922
10.000000	626.393555	33231.453125
10.000000	625.166992	33724.269531
10.000000	623.940430	34249.562500
10.000000	622.712891	35128.480469
10.000000	621.486328	35227.730469
10.000000	620.258789	35138.816406
10.000000	619.030273	33854.156250
10.000000	617.802734	33217.960938
10.000000	616.573242	32641.341797
10.000000	615.344727	32320.326172
10.000000	614.115234	31521.656250
15.000000	1722.566406	19756.078125
15.000000	1721.590820	20115.933594
15.000000	1720.613281	19944.818359
15.000000	1719.636719	20066.677734
15.000000	1718.659180	19934.169922
15.000000	1717.682617	19729.802734
15.000000	1716.705078	19792.564453
15.000000	1715.727539	19901.511719
15.000000	1714.749023	20223.453125
15.000000	1713.771484	20214.216797
15.000000	1712.792969	20097.222656
15.000000	1711.814453	20085.447266
15.000000	1710.835938	20342.964844
15.000000	1709.856445	20554.220703
15.000000	1708.877930	20327.007813
15.000000	1707.898438	20489.478516
15.000000	1706.918945	20516.064453
15.000000	1705.939453	20832.150391
15.000000	1704.958984	20879.142578
15.000000	1703.979492	20859.529297
15.000000	1702.999023	20796.390625
15.000000	1702.018555	20915.037109
15.000000	1701.038086	20959.406250
15.000000	1700.056641	20699.242188
15.000000	1699.076172	21181.125000
15.000000	1698.094727	21038.679688
15.000000	1697.113281	21210.849609
15.000000	1696.131836	21288.343750
15.000000	1695.149414	21237.986328
15.000000	1694.167969	21338.441406
15.000000	1693.185547	21364.750000
15.000000	1692.203125	21286.298828
15.000000	1691.219727	21072.503906
15.000000	1690.237305	21349.109375
15.000000	1689.253906	21360.064453
15.000000	1688.270508	21736.048828
15.000000	1687.287109	21703.531250
15.000000	1686.303711	21686.333984
15.000000	1685.320313	21822.208984
15.000000	1684.335938	22075.353516
15.000000	1683.351563	22042.785156
15.000000	1682.367188	22170.847656
15.000000	1681.382813	22339.642578
15.000000	1680.397461	22103.152344
15.000000	1679.412109	22027.279297
15.000000	1678.426758	22402.335938
15.000000	1677.441406	22451.230469
15.000000	1676.456055	22497.554688
15.000000	1675.469727	22442.021484
15.000000	1674.483398	22399.236328
15.000000	1673.497070	22794.181641
15.000000	1672.510742	23038.845703
15.000000	1671.524414	23168.935547
15.000000	1670.537109	23143.832031
15.000000	1669.549805	23266.214844
15.000000	1668.562500	23764.796875
15.000000	1667.575195	23973.414063
15.000000	1666.587891	23782.978516
15.000000	1665.599609	23859.388672
15.000000	1664.611328	23834.160156
15.000000	1663.623047	23935.919922
15.000000	1662.634766	23903.064453
15.000000	1661.646484	24438.859375
15.000000	1660.657227	24360.222656
15.000000	1659.667969	24390.730469
15.000000	1658.678711	24766.255859
15.000000	1657.689453	24915.878906
15.000000	1656.699219	25144.050781
15.000000	1655.708984	25577.498047
15.000000	1654.718750	25275.636719
15.000000	1653.728516	25959.777344
15.000000	1652.738281	25835.328125
15.000000	1651.747070	25822.396484
15.000000	1650.756836	26204.587891
15.000000	1649.765625	26257.419922
15.000000	1648.773438	26586.189453
15.000000	1647.782227	26684.478516
15.000000	1646.790039	27286.339844
15.000000	1645.798828	27437.572266
15.000000	1644.806641	27760.757813
15.000000	1643.813477	28119.214844
15.000000	1642.821289	28399.134766
15.000000	1641.828125	28800.285156
15.000000	1640.834961	29309.953125
15.000000	1639.841797	29326.628906
15.000000	1638.848633	30043.148438
15.000000	1637.854492	30143.019531
15.000000	1636.861328	30667.128906
15.000000	1635.867188	30943.570313
15.000000	1634.873047	31497.585938
15.000000	1633.877930	31965.552734
15.000000	1632.883789	32733.609375
15.000000	1631.888672	33135.527344
15.000000	1630.893555	33761.765625
15.000000	1629.898438	34599.570313
15.000000	1628.902344	35464.761719
15.000000	1627.907227	36039.703125
15.000000	1626.911133	36949.593750
15.000000	1625.915039	37783.511719
15.000000	1624.918945	39382.921875
15.000000	1623.921875	40714.679688
15.000000	1622.924805	42295.183594
15.000000	1621.928711	44683.187500
15.000000	1620.930664	46911.617188
15.000000	1619.933594	49360.574219
15.000000	1618.936523	51959.472656
15.000000	1617.938477	55080.519531
15.000000	1616.940430	57498.570313
15.000000	1615.942383	59686.789063
15.000000	1614.943359	61310.960938
15.000000	1613.945313	62200.519531
15.000000	1612.946289	63313.351563
15.000000	1611.947266	63717.214844
15.000000	1610.948242	64442.425781
15.000000	1609.948242	64521.910156
15.000000	1608.949219	64011.304688
15.000000	1607.949219	63772.023438
15.000000	1606.949219	63286.875000
15.000000	1605.948242	63461.863281
15.000000	1604.948242	64815.878906
15.000000	1603.947266	65685.234375
15.000000	1602.946289	67401.828125
15.000000	1601.945313	68611.242188
15.000000	1600.944336	70745.101563
15.000000	1599.942383	73306.617188
15.000000	1598.940430	76470.890625
15.000000	1597.938477	80235.062500
15.000000	1596.936523	83366.500000
15.000000	1595.934570	86802.117188
15.000000	1594.931641	90426.554688
15.000000	1593.928711	93794.156250
15.000000	1592.925781	96352.054688
15.000000	1591.922852	99969.687500
15.000000	1590.918945	102470.164063
15.000000	1589.915039	105012.109375
15.000000	1588.911133	107672.992188
15.000000	1587.907227	110940.210938
15.000000	1586.903320	114076.078125
15.000000	1585.898438	116383.531250
15.000000	1584.894531	118969.812500
15.000000	1583.889648	121784.781250
15.000000	1582.883789	123212.609375
15.000000	1581.878906	124911.968750
15.000000	1580.873047	125627.109375
15.000000	1579.867188	125378.617188
15.000000	1578.861328	124578.804688
15.000000	1577.855469	122734.078125
15.000000	1576.848633	119875.023438
15.000000	1575.842773	117044.593750
15.000000	1574.835938	113272.984375
15.000000	1573.828125	109089.187500
15.000000	1572.821289	104887.210938
15.000000	1571.813477	100861.382813
15.000000	1570.805664	96869.632813
15.000000	1569.797852	93472.265625
15.000000	1568.790039	90833.242188
15.000000	1567.782227	88294.890625
15.000000	1566.773438	86870.109375
15.000000	1565.764648	85550.437500
15.000000	1564.755859	85077.148438
15.000000	1563.747070	84233.453125
15.000000	1562.737305	84091.367188
15.000000	1561.727539	84349.609375
15.000000	1560.717773	84876.195313
15.000000	1559.708008	85822.539063
15.000000	1558.697266	85575.851563
15.000000	1557.687500	87264.382813
15.000000	1556.676758	87633.406250
15.000000	1555.666016	88878.789063
15.000000	1554.654297	90632.562500
15.000000	1553.643555	92077.812500
15.000000	1552.631836	92050.921875
15.000000	1551.620117	92780.734375
15.000000	1550.608398	93314.273438
15.000000	1549.596680	92161.226563
15.000000	1548.583984	90894.609375
15.000000	1547.571289	89856.578125
15.000000	1546.558594	88038.296875
15.000000	1545.545898	87006.250000
15.000000	1544.532227	86363.562500
15.000000	1543.518555	84802.265625
15.000000	1542.504883	84296.492188
15.000000	1541.491211	84409.867188
15.000000	1540.477539	84565.257813
15.000000	1539.462891	84176.148438
15.000000	1538.448242	84539.335938
15.000000	1537.433594	85134.890625
15.000000	1536.418945	85309.750000
15.000000	1535.404297	86416.695313
15.000000	1534.388672	87345.171875
15.000000	1533.373047	89029.539063
15.000000	1532.357422	90599.515625
15.000000	1531.340820	92356.578125
15.000000	1530.325195	94443.859375
15.000000	1529.308594	96399.367188
15.000000	1528.291992	98146.640625
15.000000	1527.275391	100927.429688
15.000000	1526.257813	104812.625000
15.000000	1525.240234	109145.218750
15.000000	1524.223633	114349.218750
15.000000	1523.205078	120221.820313
15.000000	1522.187500	126802.062500
15.000000	1521.168945	132228.234375
15.000000	1520.151367	138066.156250
15.000000	1519.132813	143445.703125
15.000000	1518.113281	145598.000000
15.000000	1517.094727	148118.843750
15.000000	1516.075195	148451.812500
15.000000	1515.055664	146743.531250
15.000000	1514.036133	142318.375000
15.000000	1513.016602	139059.187500
15.000000	1511.996094	133892.000000
15.000000	1510.975586	130185.773438
15.000000	1509.955078	127012.367188
15.000000	1508.934570	124787.000000
15.000000	1507.914063	124241.679688
15.000000	1506.892578	125970.140625
15.000000	1505.871094	127869.875000
15.000000	1504.849609	131255.187500
15.000000	1503.827148	135410.328125
15.000000	1502.805664	139887.859375
15.000000	1501.783203	144734.203125
15.000000	1500.760742	148176.812500
15.000000	1499.738281	151028.906250
15.000000	1498.714844	151494.765625
15.000000	1497.691406	151177.859375
15.000000	1496.668945	149671.515625
15.000000	1495.644531	145014.796875
15.000000	1494.621094	140453.234375
15.000000	1493.596680	133998.890625
15.000000	1492.573242	127498.296875
15.000000	1491.547852	122031.937500
15.000000	1490.523438	116308.250000
15.000000	1489.499023	111845.789063
15.000000	1488.473633	108802.898438
15.000000	1487.448242	105817.593750
15.000000	1486.422852	103790.507813
15.000000	1485.396484	102955.921875
15.000000	1484.371094	102327.179688
15.000000	1483.344727	101889.476563
15.000000	1482.318359	102718.632813
15.000000	1481.291992	103087.796875
15.000000	1480.264648	103642.562500
15.000000	1479.237305	105318.773438
15.000000	1478.209961	106630.210938
15.000000	1477.182617	107887.328125
15.000000	1476.155273	109231.828125
15.000000	1475.126953	110700.257813
15.000000	1474.098633	109734.234375
15.000000	1473.070313	109420.265625
15.000000	1472.041992	107703.359375
15.000000	1471.012695	106016.453125
15.000000	1469.983398	104505.882813
15.000000	1468.954102	101959.570313
15.000000	1467.924805	99521.617188
15.000000	1466.895508	96589.898438
15.000000	1465.865234	94088.328125
15.000000	1464.834961	91422.156250
15.000000	1463.804688	89468.398438
15.000000	1462.773438	87235.406250
15.000000	1461.743164	85144.585938
15.000000	1460.711914	83672.984375
15.000000	1459.680664	81715.242188
15.000000	1458.649414	80096.554688
15.000000	1457.617188	79782.531250
15.000000	1456.584961	78887.320313
15.000000	1455.552734	78556.656250
15.000000	1454.520508	77900.335938
15.000000	1453.488281	77912.734375
15.000000	1452.455078	77968.859375
15.000000	1451.421875	78455.000000
15.000000	1450.388672	79195.976563
15.000000	1449.355469	78460.054688
15.000000	1448.321289	78161.492188
15.000000	1447.288086	78052.398438
15.000000	1446.253906	79287.914063
15.000000	1445.218750	78950.515625
15.000000	1444.184570	78424.039063
15.000000	1443.149414	77829.867188
15.000000	1442.114258	77483.289063
15.000000	1441.079102	77510.210938
15.000000	1440.043945	77321.382813
15.000000	1439.007813	77854.796875
15.000000	1437.971680	77510.906250
15.000000	1436.935547	77036.351563
15.000000	1435.899414	76898.625000
15.000000	1434.862305	77051.500000
15.000000	1433.826172	77535.945313
15.000000	1432.789063	78083.093750
15.000000	1431.750977	77962.171875
15.000000	1430.713867	77125.226563
15.000000	1429.675781	77347.992188
15.000000	1428.637695	74913.148438
15.000000	1427.599609	73782.437500
15.000000	1426.561523	72589.367188
15.000000	1425.522461	71568.375000
15.000000	1424.483398	70453.593750
15.000000	1423.444336	69380.359375
15.000000	1422.405273	68099.890625
15.000000	1421.365234	66658.203125
15.000000	1420.326172	66098.218750
15.000000	1419.286133	64527.253906
15.000000	1418.245117	64797.992188
15.000000	1417.205078	63546.410156
15.000000	1416.164063	63819.644531
15.000000	1415.123047	64292.898438
15.000000	1414.082031	64599.593750
15.000000	1413.041016	65421.945313
15.000000	1411.999023	66405.390625
15.000000	1410.957031	67214.945313
15.000000	1409.915039	68139.750000
15.000000	1408.873047	68565.664063
15.000000	1407.831055	68728.945313
15.000000	1406.788086	70476.046875
15.000000	1405.745117	71305.460938
15.000000	1404.702148	71670.140625
15.000000	1403.658203	72939.140625
15.000000	1402.614258	74476.953125
15.000000	1401.571289	75807.304688
15.000000	1400.526367	77723.640625
15.000000	1399.482422	78793.117188
15.000000	1398.437500	80352.328125
15.000000	1397.393555	81821.953125
15.000000	1396.347656	82260.523438
15.000000	1395.302734	83433.718750
15.000000	1394.257813	83667.656250
15.000000	1393.211914	84604.781250
15.000000	1392.166016	85325.515625
15.000000	1391.120117	85722.015625
15.000000	1390.073242	85619.398438
15.000000	1389.026367	86382.585938
15.000000	1387.979492	85479.007813
15.000000	1386.932617	86318.585938
15.000000	1385.885742	85894.742188
15.000000	1384.837891	85308.132813
15.000000	1383.790039	85303.914063
15.000000	1382.742188	85270.945313
15.000000	1381.694336	85661.828125
15.000000	1380.645508	85552.171875
15.000000	1379.596680	85727.390625
15.000000	1378.547852	85340.164063
15.000000	1377.499023	85132.531250
15.000000	1376.450195	85776.531250
15.000000	1375.400391	85992.171875
15.000000	1374.350586	87061.281250
15.000000	1373.300781	88447.835938
15.000000	1372.250000	88901.718750
15.000000	1371.199219	90643.265625
15.000000	1370.148438	91509.726563
15.000000	1369.097656	91929.187500
15.000000	1368.046875	91708.523438
15.000000	1366.995117	91031.968750
15.000000	1365.943359	90171.929688
15.000000	1364.891602	89223.960938
15.000000	1363.839844	87553.531250
15.000000	1362.787109	86143.812500
15.000000	1361.735352	84791.929688
15.000000	1360.682617	83416.789063
15.000000	1359.628906	81205.593750
15.000000	1358.576172	79588.750000
15.000000	1357.522461	77210.179688
15.000000	1356.468750	75192.335938
15.000000	1355.415039	73837.437500
15.000000	1354.360352	72397.414063
15.000000	1353.306641	70329.554688
15.000000	1352.251953	68555.343750
15.000000	1351.196289	68050.148438
15.000000	1350.141602	67019.421875
15.000000	1349.085938	66353.046875
15.000000	1348.030273	65996.078125
15.000000	1346.974609	65487.109375
15.000000	1345.918945	64954.589844
15.000000	1344.862305	65113.808594
15.000000	1343.806641	65436.886719
15.000000	1342.749023	65762.187500
15.000000	1341.692383	65935.359375
15.000000	1340.635742	66723.375000
15.000000	1339.578125	67470.687500
15.000000	1338.520508	68371.921875
15.000000	1337.462891	68003.375000
15.000000	1336.404297	68401.187500
15.000000	1335.345703	68803.570313
15.000000	1334.287109	69025.554688
15.000000	1333.228516	68806.507813
15.000000	1332.169922	68011.625000
15.000000	1331.110352	67446.937500
15.000000	1330.050781	67024.625000
15.000000	1328.991211	67043.039063
15.000000	1327.930664	66351.046875
15.000000	1326.871094	65836.906250
15.000000	1325.810547	64686.281250
15.000000	1324.750000	63765.699219
15.000000	1323.688477	61946.472656
15.000000	1322.627930	60411.890625
15.000000	1321.566406	59346.218750
15.000000	1320.504883	58141.515625
15.000000	1319.443359	56729.324219
15.000000	1318.380859	56024.375000
15.000000	1317.318359	55463.859375
15.000000	1316.255859	55201.234375
15.000000	1315.193359	54652.945313
15.000000	1314.129883	55181.613281
15.000000	1313.067383	54871.992188
15.000000	1312.003906	55117.144531
15.000000	1310.939453	55364.542969
15.000000	1309.875977	55394.789063
15.000000	1308.811523	56179.773438
15.000000	1307.747070	56134.355469
15.000000	1306.682617	57965.582031
15.000000	1305.617188	58487.828125
15.000000	1304.552734	60195.175781
15.000000	1303.487305	61534.222656
15.000000	1302.421875	63951.488281
15.000000	1301.355469	64907.601563
15.000000	1300.290039	65924.500000
15.000000	1299.223633	66684.367188
15.000000	1298.157227	66815.531250
15.000000	1297.089844	66908.984375
15.000000	1296.023438	66894.187500
15.000000	1294.956055	66086.812500
15.000000	1293.888672	65761.812500
15.000000	1292.820313	65234.781250
15.000000	1291.752930	63984.093750
15.000000	1290.684570	63243.847656
15.000000	1289.616211	63112.382813
15.000000	1288.546875	62468.945313
15.000000	1287.478516	62008.949219
15.000000	1286.409180	61835.566406
15.000000	1285.339844	61598.882813
15.000000	1284.270508	60578.519531
15.000000	1283.200195	60046.597656
15.000000	1282.129883	60143.527344
15.000000	1281.059570	60057.488281
15.000000	1279.989258	60109.816406
15.000000	1278.918945	60028.503906
15.000000	1277.847656	59684.746094
15.000000	1276.776367	59924.542969
15.000000	1275.705078	59613.746094
15.000000	1274.632813	59893.257813
15.000000	1273.561523	60118.785156
15.000000	1272.489258	60477.636719
15.000000	1271.416016	61526.746094
15.000000	1270.343750	62009.128906
15.000000	1269.270508	61897.097656
15.000000	1268.197266	62486.761719
15.000000	1267.124023	61539.878906
15.000000	1266.050781	60450.808594
15.000000	1264.976563	59177.574219
15.000000	1263.902344	58905.031250
15.000000	1262.828125	57861.644531
15.000000	1261.753906	57526.441406
15.000000	1260.678711	57058.277344
15.000000	1259.603516	57960.769531
15.000000	1258.528320	57574.402344
15.000000	1257.452148	57029.511719
15.000000	1256.376953	56722.835938
15.000000	1255.300781	55903.121094
15.000000	1254.224609	55995.613281
15.000000	1253.147461	54994.550781
15.000000	1252.071289	54749.191406
15.000000	1250.994141	53872.363281
15.000000	1249.916992	53126.402344
15.000000	1248.839844	52697.578125
15.000000	1247.761719	52159.480469
15.000000	1246.683594	51600.660156
15.000000	1245.605469	51288.843750
15.000000	1244.527344	51026.039063
15.000000	1243.448242	50242.125000
15.000000	1242.369141	50419.343750
15.000000	1241.290039	50033.625000
15.000000	1240.210938	49680.628906
15.000000	1239.130859	50206.562500
15.000000	1238.050781	50455.667969
15.000000	1236.970703	49854.156250
15.000000	1235.890625	50035.843750
15.000000	1234.810547	50256.929688
15.000000	1233.729492	50868.046875
15.000000	1232.648438	51225.824219
15.000000	1231.566406	51555.578125
15.000000	1230.485352	52729.898438
15.000000	1229.403320	52411.843750
15.000000	1228.321289	53508.894531
15.000000	1227.239258	53378.644531
15.000000	1226.156250	54178.195313
15.000000	1225.073242	54886.980469
15.000000	1223.990234	55537.503906
15.000000	1222.907227	56514.433594
15.000000	1221.823242	56761.222656
15.000000	1220.740234	57626.257813
15.000000	1219.656250	58729.398438
15.000000	1218.571289	58987.082031
15.000000	1217.487305	59570.980469
15.000000	1216.402344	59932.472656
15.000000	1215.317383	60650.062500
15.000000	1214.232422	60451.425781
15.000000	1213.146484	60687.597656
15.000000	1212.060547	60600.000000
15.000000	1210.974609	60251.257813
15.000000	1209.888672	60954.078125
15.000000	1208.802734	61159.867188
15.000000	1207.715820	61973.023438
15.000000	1206.628906	62414.023438
15.000000	1205.541992	62917.156250
15.000000	1204.454102	63073.824219
15.000000	1203.366211	64056.566406
15.000000	1202.278320	65158.832031
15.000000	1201.190430	66823.414063
15.000000	1200.101563	68694.796875
15.000000	1199.013672	72010.945313
15.000000	1197.924805	75839.632813
15.000000	1196.834961	79224.109375
15.000000	1195.746094	83673.828125
15.000000	1194.656250	88718.156250
15.000000	1193.566406	95356.187500
15.000000	1192.476563	102145.484375
15.000000	1191.385742	108844.242188
15.000000	1190.294922	115187.851563
15.000000	1189.204102	120345.914063
15.000000	1188.113281	123543.976563
15.000000	1187.021484	125664.242188
15.000000	1185.930664	126774.101563
15.000000	1184.838867	126782.296875
15.000000	1183.746094	126420.445313
15.000000	1182.654297	126734.304688
15.000000	1181.561523	128134.640625
15.000000	1180.468750	127196.195313
15.000000	1179.375977	127941.328125
15.000000	1178.282227	129000.632813
15.000000	1177.188477	130768.679688
15.000000	1176.094727	132109.093750
15.000000	1175.000977	133175.875000
15.000000	1173.906250	133989.859375
15.000000	1172.811523	134085.703125
15.000000	1171.716797	134910.562500
15.000000	1170.622070	136092.593750
15.000000	1169.526367	137338.250000
15.000000	1168.431641	138090.750000
15.000000	1167.334961	137883.140625
15.000000	1166.239258	138289.343750
15.000000	1165.143555	138711.375000
15.000000	1164.046875	137574.390625
15.000000	1162.950195	137087.828125
15.000000	1161.852539	136455.062500
15.000000	1160.755859	134500.406250
15.000000	1159.658203	132823.343750
15.000000	1158.560547	131318.500000
15.000000	1157.461914	128755.960938
15.000000	1156.364258	126532.804688
15.000000	1155.265625	124429.460938
15.000000	1154.166992	121904.453125
15.000000	1153.067383	120364.906250
15.000000	1151.967773	120700.656250
15.000000	1150.869141	123214.023438
15.000000	1149.768555	126333.335938
15.000000	1148.668945	130683.359375
15.000000	1147.568359	136030.593750
15.000000	1146.467773	139477.812500
15.000000	1145.367188	139765.359375
15.000000	1144.266602	138881.015625
15.000000	1143.165039	136027.843750
15.000000	1142.063477	130892.750000
15.000000	1140.961914	125441.031250
15.000000	1139.859375	118511.335938
15.000000	1138.757813	111625.757813
15.000000	1137.655273	104162.773438
15.000000	1136.551758	98127.992188
15.000000	1135.449219	92141.460938
15.000000	1134.345703	86976.648438
15.000000	1133.242188	82282.734375
15.000000	1132.138672	78120.781250
15.000000	1131.034180	75790.867188
15.000000	1129.929688	72307.351563
15.000000	1128.825195	70018.437500
15.000000	1127.720703	68459.851563
15.000000	1126.616211	66186.468750
15.000000	1125.510742	65067.730469
15.000000	1124.405273	63574.886719
15.000000	1123.298828	62924.832031
15.000000	1122.193359	62903.671875
15.000000	1121.086914	62444.632813
15.000000	1119.980469	63489.679688
15.000000	1118.873047	63048.847656
15.000000	1117.766602	61971.109375
15.000000	1116.659180	60687.582031
15.000000	1115.551758	58863.007813
15.000000	1114.443359	58480.253906
15.000000	1113.335938	57708.050781
15.000000	1112.227539	56981.492188
15.000000	1111.118164	56545.070313
15.000000	1110.009766	56575.152344
15.000000	1108.900391	57806.933594
15.000000	1107.791016	58305.062500
15.000000	1106.681641	58269.105469
15.000000	1105.572266	58038.664063
15.000000	1104.461914	57751.792969
15.000000	1103.351563	55927.886719
15.000000	1102.241211	55058.535156
15.000000	1101.129883	52519.804688
15.000000	1100.018555	51287.925781
15.000000	1098.907227	49857.859375
15.000000	1097.795898	48857.457031
15.000000	1096.683594	47758.175781
15.000000	1095.572266	46399.851563
15.000000	1094.458984	45522.757813
15.000000	1093.346680	44955.117188
15.000000	1092.234375	44062.957031
15.000000	1091.121094	43646.976563
15.000000	1090.006836	43314.589844
15.000000	1088.893555	43108.566406
15.000000	1087.779297	43010.792969
15.000000	1086.666016	43068.500000
15.000000	1085.550781	42900.949219
15.000000	1084.436523	42494.785156
15.000000	1083.321289	42906.000000
15.000000	1082.206055	42331.210938
15.000000	1081.090820	42584.750000
15.000000	1079.974609	42183.515625
15.000000	1078.859375	42252.535156
15.000000	1077.743164	41233.179688
15.000000	1076.625977	41493.464844
15.000000	1075.509766	40901.789063
15.000000	1074.392578	40739.570313
15.000000	1073.275391	40388.714844
15.000000	1072.158203	40159.300781
15.000000	1071.040039	39761.570313
15.000000	1069.921875	39732.207031
15.000000	1068.803711	39435.753906
15.000000	1067.685547	39125.972656
15.000000	1066.566406	39173.035156
15.000000	1065.447266	39424.183594
15.000000	1064.328125	39697.636719
15.000000	1063.208008	39580.867188
15.000000	1062.088867	40318.113281
15.000000	1060.968750	40030.941406
15.000000	1059.847656	39517.617188
15.000000	1058.727539	39752.636719
15.000000	1057.606445	39369.488281
15.000000	1056.485352	38288.003906
15.000000	1055.364258	38073.234375
15.000000	1054.242188	37663.875000
15.000000	1053.120117	37082.429688
15.000000	1051.998047	36082.984375
15.000000	1050.875977	35571.488281
15.000000	1049.752930	34874.664063
15.000000	1048.629883	34379.324219
15.000000	1047.506836	33980.300781
15.000000	1046.383789	33480.921875
15.000000	1045.259766	33182.796875
15.000000	1044.135742	33032.191406
15.000000	1043.011719	32933.003906
15.000000	1041.886719	32371.816406
15.000000	1040.762695	32257.199219
15.000000	1039.637695	32417.048828
15.000000	1038.511719	32661.582031
15.000000	1037.386719	31840.052734
15.000000	1036.260742	32044.468750
15.000000	1035.134766	31934.500000
15.000000	1034.007813	32176.673828
15.000000	1032.881836	32178.117188
15.000000	1031.754883	31783.072266
15.000000	1030.627930	31960.523438
15.000000	1029.500000	31447.708984
15.000000	1028.372070	31222.265625
15.000000	1027.245117	30952.417969
15.000000	1026.116211	30831.755859
15.000000	1024.988281	30784.546875
15.000000	1023.859375	31046.466797
15.000000	1022.730469	31299.367188
15.000000	1021.601563	31643.281250
15.000000	1020.471680	31378.134766
15.000000	1019.341797	31986.248047
15.000000	1018.211914	32303.095703
15.000000	1017.082031	32424.373047
15.000000	1015.951172	32678.798828
15.000000	1014.820313	32722.236328
15.000000	1013.689453	32874.386719
15.000000	1012.557617	33312.664063
15.000000	1011.426758	33502.308594
15.000000	1010.293945	33760.601563
15.000000	1009.162109	34056.464844
15.000000	1008.030273	33842.375000
15.000000	1006.897461	34333.085938
15.000000	1005.764648	34504.523438
15.000000	1004.630859	34682.527344
15.000000	1003.498047	35513.714844
15.000000	1002.364258	35653.750000
15.000000	1001.230469	35820.281250
15.000000	1000.095703	36223.511719
15.000000	998.960938	36091.144531
15.000000	997.826172	35766.402344
15.000000	996.691406	36072.050781
15.000000	995.556641	35548.476563
15.000000	994.420898	35765.613281
15.000000	993.285156	35657.796875
15.000000	992.148438	35649.445313
15.000000	991.012695	35758.160156
15.000000	989.875977	35703.406250
15.000000	988.739258	35619.972656
15.000000	987.601563	35591.757813
15.000000	986.463867	35150.894531
15.000000	985.326172	35376.507813
15.000000	984.188477	35802.726563
15.000000	983.049805	35829.609375
15.000000	981.912109	35865.292969
15.000000	980.773438	36670.195313
15.000000	979.633789	37227.914063
15.000000	978.495117	38140.066406
15.000000	977.355469	39159.707031
15.000000	976.214844	40121.613281
15.000000	975.075195	41175.531250
15.000000	973.934570	42327.992188
15.000000	972.793945	43444.695313
15.000000	971.653320	45110.871094
15.000000	970.511719	45815.082031
15.000000	969.370117	46406.812500
15.000000	968.228516	46811.390625
15.000000	967.086914	47747.671875
15.000000	965.944336	48033.070313
15.000000	964.801758	48105.234375
15.000000	963.659180	47819.347656
15.000000	962.516602	47803.683594
15.000000	961.373047	46819.875000
15.000000	960.229492	46435.714844
15.000000	959.084961	46418.175781
15.000000	957.941406	45654.750000
15.000000	956.796875	45472.898438
15.000000	955.652344	44405.257813
15.000000	954.506836	44219.390625
15.000000	953.362305	43910.871094
15.000000	952.216797	43545.519531
15.000000	951.070313	42740.011719
15.000000	949.924805	42683.914063
15.000000	948.778320	42058.531250
15.000000	947.631836	41521.003906
15.000000	946.485352	41382.050781
15.000000	945.337891	41389.757813
15.000000	944.190430	41738.718750
15.000000	943.042969	41820.687500
15.000000	941.894531	41460.937500
15.000000	940.747070	41099.164063
15.000000	939.597656	40252.378906
15.000000	938.449219	39622.304688
15.000000	937.300781	38584.027344
15.000000	936.151367	37882.566406
15.000000	935.001953	37401.957031
15.000000	933.851563	36954.316406
15.000000	932.701172	36299.558594
15.000000	931.550781	36280.027344
15.000000	930.400391	36347.757813
15.000000	929.250000	36227.898438
15.000000	928.098633	36838.496094
15.000000	926.947266	37331.089844
15.000000	925.794922	38784.500000
15.000000	924.642578	40115.207031
15.000000	923.490234	42068.253906
15.000000	922.337891	45494.675781
15.000000	921.185547	49509.484375
15.000000	920.032227	52299.078125
15.000000	918.878906	53994.906250
15.000000	917.724609	55241.738281
15.000000	916.571289	55430.859375
15.000000	915.416992	54969.671875
15.000000	914.262695	53778.207031
15.000000	913.107422	52985.070313
15.000000	911.952148	51549.078125
15.000000	910.796875	49887.824219
15.000000	909.641602	48978.871094
15.000000	908.485352	48057.316406
15.000000	907.329102	46578.257813
15.000000	906.172852	45280.046875
15.000000	905.016602	43620.070313
15.000000	903.859375	42524.933594
15.000000	902.702148	41458.507813
15.000000	901.544922	40574.730469
15.000000	900.386719	39864.800781
15.000000	899.228516	38611.207031
15.000000	898.070313	37470.878906
15.000000	896.911133	36747.023438
15.000000	895.752930	36541.132813
15.000000	894.593750	36056.015625
15.000000	893.433594	35268.062500
15.000000	892.274414	34954.449219
15.000000	891.114258	34987.175781
15.000000	889.954102	34773.277344
15.000000	888.792969	35000.664063
15.000000	887.632813	35303.609375
15.000000	886.470703	35960.914063
15.000000	885.309570	36520.648438
15.000000	884.148438	37067.144531
15.000000	882.986328	37300.164063
15.000000	881.824219	37466.117188
15.000000	880.661133	37247.679688
15.000000	879.498047	37219.292969
15.000000	878.334961	36746.367188
15.000000	877.171875	36696.531250
15.000000	876.007813	36338.265625
15.000000	874.843750	36452.429688
15.000000	873.679688	36441.492188
15.000000	872.515625	36376.667969
15.000000	871.350586	36801.027344
15.000000	870.185547	36973.121094
15.000000	869.020508	37560.812500
15.000000	867.854492	37586.203125
15.000000	866.688477	37165.945313
15.000000	865.522461	36726.515625
15.000000	864.356445	35988.199219
15.000000	863.189453	35824.613281
15.000000	862.022461	35452.484375
15.000000	860.854492	34953.667969
15.000000	859.687500	34412.093750
15.000000	858.519531	34790.617188
15.000000	857.351563	34560.890625
15.000000	856.182617	34670.671875
15.000000	855.013672	35375.277344
15.000000	853.844727	35776.804688
15.000000	852.675781	36912.250000
15.000000	851.505859	37433.378906
15.000000	850.335938	37737.546875
15.000000	849.166016	37869.964844
15.000000	847.995117	37847.914063
15.000000	846.825195	37643.628906
15.000000	845.653320	37812.398438
15.000000	844.482422	38131.082031
15.000000	843.310547	38006.128906
15.000000	842.138672	37964.769531
15.000000	840.966797	38520.859375
15.000000	839.793945	38440.847656
15.000000	838.622070	38104.031250
15.000000	837.448242	38621.148438
15.000000	836.275391	38382.847656
15.000000	835.101563	38950.968750
15.000000	833.927734	39762.562500
15.000000	832.753906	40727.675781
15.000000	831.579102	41450.808594
15.000000	830.404297	42716.292969
15.000000	829.229492	43024.164063
15.000000	828.054688	44570.542969
15.000000	826.878906	44563.941406
15.000000	825.703125	46977.953125
15.000000	824.526367	48838.058594
15.000000	823.350586	50686.578125
15.000000	822.173828	51533.804688
15.000000	820.996094	52118.312500
15.000000	819.819336	51723.945313
15.000000	818.641602	50349.296875
15.000000	817.463867	49303.476563
15.000000	816.285156	46954.343750
15.000000	815.107422	45632.964844
15.000000	813.928711	44011.988281
15.000000	812.749023	42915.492188
15.000000	811.570313	42030.234375
15.000000	810.390625	41709.273438
15.000000	809.209961	41635.226563
15.000000	808.030273	41927.015625
15.000000	806.849609	42322.839844
15.000000	805.668945	42886.398438
15.000000	804.488281	43343.414063
15.000000	803.306641	43608.976563
15.000000	802.125000	44246.128906
15.000000	800.943359	45628.355469
15.000000	799.760742	46464.257813
15.000000	798.578125	48195.476563
15.000000	797.395508	48864.804688
15.000000	796.211914	48407.253906
15.000000	795.029297	46429.148438
15.000000	793.844727	43885.839844
15.000000	792.661133	42308.367188
15.000000	791.476563	40519.718750
15.000000	790.291992	39405.765625
15.000000	789.107422	38512.671875
15.000000	787.922852	37723.789063
15.000000	786.737305	37225.367188
15.000000	785.550781	36598.062500
15.000000	784.365234	36470.511719
15.000000	783.178711	35716.742188
15.000000	781.992188	34954.878906
15.000000	780.805664	34409.089844
15.000000	779.618164	33730.371094
15.000000	778.430664	32567.945313
15.000000	777.243164	32266.154297
15.000000	776.054688	31672.960938
15.000000	774.866211	31405.324219
15.000000	773.677734	31180.048828
15.000000	772.489258	30674.105469
15.000000	771.299805	30894.441406
15.000000	770.110352	30582.935547
15.000000	768.919922	31106.947266
15.000000	767.730469	31474.626953
15.000000	766.540039	32251.166016
15.000000	765.348633	33113.738281
15.000000	764.158203	34334.140625
15.000000	762.966797	35553.929688
15.000000	761.774414	36888.957031
15.000000	760.583008	38189.625000
15.000000	759.390625	39133.835938
15.000000	758.198242	39071.476563
15.000000	757.005859	37910.710938
15.000000	755.812500	36803.105469
15.000000	754.619141	35609.820313
15.000000	753.424805	33740.046875
15.000000	752.231445	32848.718750
15.000000	751.037109	32409.685547
15.000000	749.842773	32426.812500
15.000000	748.647461	32353.599609
15.000000	747.452148	32887.343750
15.000000	746.256836	32845.535156
15.000000	745.060547	32860.417969
15.000000	743.865234	33198.460938
15.000000	742.668945	33370.585938
15.000000	741.471680	32720.414063
15.000000	740.274414	32462.691406
15.000000	739.077148	31861.279297
15.000000	737.879883	32230.560547
15.000000	736.681641	32777.757813
15.000000	735.484375	33930.082031
15.000000	734.285156	35873.476563
15.000000	733.086914	38100.644531
15.000000	731.887695	39600.328125
15.000000	730.688477	41672.660156
15.000000	729.488281	42275.214844
15.000000	728.288086	42607.632813
15.000000	727.087891	41959.125000
15.000000	725.887695	41444.734375
15.000000	724.686523	41129.156250
15.000000	723.485352	40539.996094
15.000000	722.284180	39733.863281
15.000000	721.082031	38869.652344
15.000000	719.879883	37703.109375
15.000000	718.677734	36317.960938
15.000000	717.474609	35613.855469
15.000000	716.272461	34878.796875
15.000000	715.068359	34002.265625
15.000000	713.865234	33420.210938
15.000000	712.661133	32609.107422
15.000000	711.457031	31733.794922
15.000000	710.251953	31275.679688
15.000000	709.047852	30676.128906
15.000000	707.842773	30351.796875
15.000000	706.636719	30210.859375
15.000000	705.431641	30417.628906
15.000000	704.225586	30412.011719
15.000000	703.018555	30941.115234
15.000000	701.812500	30696.146484
15.000000	700.605469	29634.021484
15.000000	699.397461	29067.244141
15.000000	698.190430	28847.863281
15.000000	696.982422	28150.648438
15.000000	695.774414	28108.187500
15.000000	694.565430	27930.742188
15.000000	693.356445	27612.185547
15.000000	692.147461	27470.236328
15.000000	690.938477	27452.876953
15.000000	689.728516	27628.482422
15.000000	688.518555	27623.527344
15.000000	687.308594	27776.179688
15.000000	686.097656	27953.626953
15.000000	684.886719	28180.724609
15.000000	683.674805	28730.964844
15.000000	682.463867	28437.751953
15.000000	681.251953	28797.089844
15.000000	680.040039	28862.216797
15.000000	678.827148	28873.480469
15.000000	677.614258	28919.917969
15.000000	676.401367	28968.394531
15.000000	675.187500	29118.199219
15.000000	673.973633	29418.882813
15.000000	672.759766	29518.867188
15.000000	671.545898	29939.164063
15.000000	670.331055	30373.707031
15.000000	669.116211	30564.251953
15.000000	667.900391	30886.875000
15.000000	666.684570	31444.712891
15.000000	665.468750	31473.810547
15.000000	664.252930	31612.263672
15.000000	663.036133	31366.884766
15.000000	661.819336	31249.511719
15.000000	660.602539	31392.025391
15.000000	659.384766	31223.156250
15.000000	658.166992	31268.720703
15.000000	656.948242	31882.968750
15.000000	655.730469	31695.546875
15.000000	654.511719	31932.470703
15.000000	653.291992	32659.302734
15.000000	652.073242	32941.132813
15.000000	650.853516	33535.609375
15.000000	649.633789	34308.769531
15.000000	648.413086	34633.132813
15.000000	647.192383	34683.832031
15.000000	645.971680	34662.546875
15.000000	644.750000	34509.730469
15.000000	643.528320	34490.546875
15.000000	642.306641	34202.265625
15.000000	641.084961	34834.164063
15.000000	639.862305	34525.398438
15.000000	638.639648	34321.472656
15.000000	637.416016	34027.351563
15.000000	636.192383	33784.664063
15.000000	634.968750	33974.863281
15.000000	633.745117	34076.781250
15.000000	632.520508	34254.492188
15.000000	631.295898	34321.437500
15.000000	630.070313	34388.339844
15.000000	628.844727	34061.917969
15.000000	627.619141	33684.464844
15.000000	626.393555	33778.078125
15.000000	625.166992	33959.648438
15.000000	623.940430	34390.753906
15.000000	622.712891	34928.003906
15.000000	621.486328	34597.824219
15.000000	620.258789	34592.906250
15.000000	619.030273	34412.191406
15.000000	617.802734	34427.746094
15.000000	616.573242	34488.230469
15.000000	615.344727	34995.984375
15.000000	614.115234	34931.722656
20.000000	1722.566406	21413.984375
20.000000	1721.590820	21928.064453
20.000000	1720.613281	21707.755859
20.000000	1719.636719	21713.634766
20.000000	1718.659180	21778.595703
20.000000	1717.682617	21733.087891
20.000000	1716.705078	21435.953125
20.000000	1715.727539	21328.916016
20.000000	1714.749023	21588.964844
20.000000	1713.771484	21471.669922
20.000000	1712.792969	21726.449219
20.000000	1711.814453	21752.820313
20.000000	1710.835938	21707.369141
20.000000	1709.856445	21654.240234
20.000000	1708.877930	21885.695313
20.000000	1707.898438	21840.236328
20.000000	1706.918945	21682.041016
20.000000	1705.939453	21892.845703
20.000000	1704.958984	22011.345703
20.000000	1703.979492	22037.599609
20.000000	1702.999023	21907.648438
20.000000	1702.018555	22064.466797
20.000000	1701.038086	22157.232422
20.000000	1700.056641	22290.902344
20.000000	1699.076172	22350.320313
20.000000	1698.094727	22386.691406
20.000000	1697.113281	22213.339844
20.000000	1696.131836	22244.605469
20.000000	1695.149414	22452.244141
20.000000	1694.167969	22360.763672
20.000000	1693.185547	22182.441406
20.000000	1692.203125	22446.162109
20.000000	1691.219727	22679.123047
20.000000	1690.237305	22712.794922
20.000000	1689.253906	22874.113281
20.000000	1688.270508	22820.935547
20.000000	1687.287109	22724.392578
20.000000	1686.303711	23296.416016
20.000000	1685.320313	23210.013672
20.000000	1684.335938	23419.513672
20.000000	1683.351563	23208.166016
20.000000	1682.367188	24019.269531
20.000000	1681.382813	23925.134766
20.000000	1680.397461	23555.798828
20.000000	1679.412109	23711.494141
20.000000	1678.426758	23696.445313
20.000000	1677.441406	23737.431641
20.000000	1676.456055	23803.863281
20.000000	1675.469727	24076.484375
20.000000	1674.483398	24035.908203
20.000000	1673.497070	24041.154297
20.000000	1672.510742	24405.146484
20.000000	1671.524414	24326.365234
20.000000	1670.537109	24306.109375
20.000000	1669.549805	24359.599609
20.000000	1668.562500	24644.408203
20.000000	1667.575195	24812.179688
20.000000	1666.587891	24753.712891
20.000000	1665.599609	24906.144531
20.000000	1664.611328	25063.589844
20.000000	1663.623047	24984.783203
20.000000	1662.634766	24558.150391
20.000000	1661.646484	25068.425781
20.000000	1660.657227	25286.611328
20.000000	1659.667969	25494.556641
20.000000	1658.678711	25501.988281
20.000000	1657.689453	25506.878906
20.000000	1656.699219	25998.669922
20.000000	1655.708984	26264.601563
20.000000	1654.718750	26510.140625
20.000000	1653.728516	26423.570313
20.000000	1652.738281	26661.371094
20.000000	1651.747070	26954.802734
20.000000	1650.756836	27159.460938
20.000000	1649.765625	27531.166016
20.000000	1648.773438	27657.130859
20.000000	1647.782227	27767.855469
20.000000	1646.790039	28607.380859
20.000000	1645.798828	28624.240234
20.000000	1644.806641	28603.142578
20.000000	1643.813477	29226.988281
20.000000	1642.821289	29215.884766
20.000000	1641.828125	29455.066406
20.000000	1640.834961	29565.240234
20.000000	1639.841797	30339.984375
20.000000	1638.848633	30760.687500
20.000000	1637.854492	31082.699219
20.000000	1636.861328	31220.212891
20.000000	1635.867188	31721.263672
20.000000	1634.873047	32701.748047
20.000000	1633.877930	32631.871094
20.000000	1632.883789	33467.921875
20.000000	1631.888672	33844.457031
20.000000	1630.893555	34755.574219
20.000000	1629.898438	35172.027344
20.000000	1628.902344	35855.566406
20.000000	1627.907227	36881.644531
20.000000	1626.911133	37919.894531
20.000000	1625.915039	38937.550781
20.000000	1624.918945	40720.625000
20.000000	1623.921875	42815.269531
20.000000	1622.924805	44624.488281
20.000000	1621.928711	46775.351563
20.000000	1620.930664	48834.699219
20.000000	1619.933594	51846.972656
20.000000	1618.936523	54208.843750
20.000000	1617.938477	57140.757813
20.000000	1616.940430	59586.042969
20.000000	1615.942383	61756.226563
20.000000	1614.943359	64088.910156
20.000000	1613.945313	66785.062500
20.000000	1612.946289	67688.367188
20.000000	1611.947266	69405.312500
20.000000	1610.948242	71779.640625
20.000000	1609.948242	73110.765625
20.000000	1608.949219	74617.085938
20.000000	1607.949219	75460.046875
20.000000	1606.949219	76144.531250
20.000000	1605.948242	75436.078125
20.000000	1604.948242	75538.242188
20.000000	1603.947266	74925.515625
20.000000	1602.946289	74581.359375
20.000000	1601.945313	73758.468750
20.000000	1600.944336	75049.015625
20.000000	1599.942383	75852.835938
20.000000	1598.940430	77054.695313
20.000000	1597.938477	78779.617188
20.000000	1596.936523	81753.570313
20.000000	1595.934570	83772.242188
20.000000	1594.931641	86303.281250
20.000000	1593.928711	89346.359375
20.000000	1592.925781	92007.789063
20.000000	1591.922852	96239.304688
20.000000	1590.918945	99168.312500
20.000000	1589.915039	101620.906250
20.000000	1588.911133	103954.953125
20.000000	1587.907227	106690.484375
20.000000	1586.903320	108830.023438
20.000000	1585.898438	110476.398438
20.000000	1584.894531	111844.757813
20.000000	1583.889648	112623.078125
20.000000	1582.883789	113902.992188
20.000000	1581.878906	114246.101563
20.000000	1580.873047	115105.765625
20.000000	1579.867188	115902.664063
20.000000	1578.861328	116432.242188
20.000000	1577.855469	116088.476563
20.000000	1576.848633	115847.101563
20.000000	1575.842773	114830.328125
20.000000	1574.835938	113522.281250
20.000000	1573.828125	111691.359375
20.000000	1572.821289	110187.640625
20.000000	1571.813477	107777.656250
20.000000	1570.805664	105812.054688
20.000000	1569.797852	103164.906250
20.000000	1568.790039	100337.101563
20.000000	1567.782227	97851.523438
20.000000	1566.773438	96155.937500
20.000000	1565.764648	94697.445313
20.000000	1564.755859	93662.484375
20.000000	1563.747070	94500.851563
20.000000	1562.737305	96055.039063
20.000000	1561.727539	96596.679688
20.000000	1560.717773	96489.312500
20.000000	1559.708008	97398.414063
20.000000	1558.697266	96242.390625
20.000000	1557.687500	94406.203125
20.000000	1556.676758	93124.617188
20.000000	1555.666016	91297.296875
20.000000	1554.654297	88815.343750
20.000000	1553.643555	86478.390625
20.000000	1552.631836	85152.382813
20.000000	1551.620117	84231.320313
20.000000	1550.608398	81832.296875
20.000000	1549.596680	81807.562500
20.000000	1548.583984	81978.710938
20.000000	1547.571289	82660.421875
20.000000	1546.558594	81849.867188
20.000000	1545.545898	84154.273438
20.000000	1544.532227	84084.453125
20.000000	1543.518555	84418.359375
20.000000	1542.504883	84321.257813
20.000000	1541.491211	84610.398438
20.000000	1540.477539	83971.210938
20.000000	1539.462891	83433.742188
20.000000	1538.448242	83547.203125
20.000000	1537.433594	82525.210938
20.000000	1536.418945	82146.648438
20.000000	1535.404297	81963.578125
20.000000	1534.388672	82391.171875
20.000000	1533.373047	82413.242188
20.000000	1532.357422	83003.632813
20.000000	1531.340820	83119.437500
20.000000	1530.325195	83015.351563
20.000000	1529.308594	83363.210938
20.000000	1528.291992	84147.914063
20.000000	1527.275391	84458.343750
20.000000	1526.257813	86269.101563
20.000000	1525.240234	88434.375000
20.000000	1524.223633	89890.742188
20.000000	1523.205078	92601.828125
20.000000	1522.187500	94959.148438
20.000000	1521.168945	97966.281250
20.000000	1520.151367	100259.828125
20.000000	1519.132813	102421.789063
20.000000	1518.113281	104617.304688
20.000000	1517.094727	107045.882813
20.000000	1516.075195	109214.843750
20.000000	1515.055664	110715.640625
20.000000	1514.036133	111159.773438
20.000000	1513.016602	111660.312500
20.000000	1511.996094	111821.070313
20.000000	1510.975586	113413.476563
20.000000	1509.955078	116195.585938
20.000000	1508.934570	118826.500000
20.000000	1507.914063	123400.898438
20.000000	1506.892578	128258.453125
20.000000	1505.871094	134470.406250
20.000000	1504.849609	140605.984375
20.000000	1503.827148	146375.406250
20.000000	1502.805664	152901.187500
20.000000	1501.783203	154889.265625
20.000000	1500.760742	0.000000
20.000000	1499.738281	151522.218750
20.000000	1498.714844	144599.828125
20.000000	1497.691406	136556.843750
20.000000	1496.668945	128024.281250
20.000000	1495.644531	120704.257813
20.000000	1494.621094	115177.039063
20.000000	1493.596680	109671.781250
20.000000	1492.573242	105303.476563
20.000000	1491.547852	102762.312500
20.000000	1490.523438	100006.671875
20.000000	1489.499023	98185.273438
20.000000	1488.473633	97490.937500
20.000000	1487.448242	95105.359375
20.000000	1486.422852	94142.750000
20.000000	1485.396484	93850.992188
20.000000	1484.371094	93774.640625
20.000000	1483.344727	93077.054688
20.000000	1482.318359	93357.898438
20.000000	1481.291992	93328.125000
20.000000	1480.264648	91932.000000
20.000000	1479.237305	91335.570313
20.000000	1478.209961	90998.375000
20.000000	1477.182617	90033.539063
20.000000	1476.155273	90019.117188
20.000000	1475.126953	90004.695313
20.000000	1474.098633	89428.812500
20.000000	1473.070313	89763.515625
20.000000	1472.041992	89566.132813
20.000000	1471.012695	89112.664063
20.000000	1469.983398	89030.125000
20.000000	1468.954102	88840.312500
20.000000	1467.924805	88375.078125
20.000000	1466.895508	87814.984375
20.000000	1465.865234	88198.218750
20.000000	1464.834961	87847.914063
20.000000	1463.804688	87529.414063
20.000000	1462.773438	87776.062500
20.000000	1461.743164	87854.585938
20.000000	1460.711914	87621.476563
20.000000	1459.680664	88595.625000
20.000000	1458.649414	88768.796875
20.000000	1457.617188	88503.992188
20.000000	1456.584961	88725.742188
20.000000	1455.552734	88108.437500
20.000000	1454.520508	86443.554688
20.000000	1453.488281	86505.156250
20.000000	1452.455078	84863.187500
20.000000	1451.421875	83887.640625
20.000000	1450.388672	83461.484375
20.000000	1449.355469	83691.210938
20.000000	1448.321289	83821.289063
20.000000	1447.288086	83868.765625
20.000000	1446.253906	84190.468750
20.000000	1445.218750	85118.640625
20.000000	1444.184570	84578.703125
20.000000	1443.149414	84861.210938
20.000000	1442.114258	84445.218750
20.000000	1441.079102	84630.648438
20.000000	1440.043945	84549.359375
20.000000	1439.007813	84039.171875
20.000000	1437.971680	83466.203125
20.000000	1436.935547	82522.859375
20.000000	1435.899414	81185.164063
20.000000	1434.862305	79637.398438
20.000000	1433.826172	78741.468750
20.000000	1432.789063	78310.593750
20.000000	1431.750977	77190.296875
20.000000	1430.713867	75925.320313
20.000000	1429.675781	74936.609375
20.000000	1428.637695	74562.523438
20.000000	1427.599609	74062.882813
20.000000	1426.561523	73664.960938
20.000000	1425.522461	73651.437500
20.000000	1424.483398	73483.289063
20.000000	1423.444336	74619.578125
20.000000	1422.405273	74919.781250
20.000000	1421.365234	75202.953125
20.000000	1420.326172	76087.054688
20.000000	1419.286133	76572.562500
20.000000	1418.245117	75728.359375
20.000000	1417.205078	74216.281250
20.000000	1416.164063	73331.937500
20.000000	1415.123047	71075.929688
20.000000	1414.082031	70202.273438
20.000000	1413.041016	69263.914063
20.000000	1411.999023	69166.960938
20.000000	1410.957031	69238.687500
20.000000	1409.915039	69336.875000
20.000000	1408.873047	70793.226563
20.000000	1407.831055	71488.117188
20.000000	1406.788086	73492.179688
20.000000	1405.745117	75298.031250
20.000000	1404.702148	76968.343750
20.000000	1403.658203	79123.851563
20.000000	1402.614258	81326.515625
20.000000	1401.571289	83374.328125
20.000000	1400.526367	86065.515625
20.000000	1399.482422	88183.492188
20.000000	1398.437500	90699.437500
20.000000	1397.393555	92262.914063
20.000000	1396.347656	93590.320313
20.000000	1395.302734	94931.546875
20.000000	1394.257813	96022.492188
20.000000	1393.211914	96524.875000
20.000000	1392.166016	96983.828125
20.000000	1391.120117	96230.929688
20.000000	1390.073242	95221.687500
20.000000	1389.026367	94915.554688
20.000000	1387.979492	93523.382813
20.000000	1386.932617	92515.359375
20.000000	1385.885742	92169.257813
20.000000	1384.837891	92185.109375
20.000000	1383.790039	92517.179688
20.000000	1382.742188	93287.398438
20.000000	1381.694336	94442.804688
20.000000	1380.645508	95154.796875
20.000000	1379.596680	94952.132813
20.000000	1378.547852	96247.585938
20.000000	1377.499023	96310.320313
20.000000	1376.450195	97583.367188
20.000000	1375.400391	98071.445313
20.000000	1374.350586	99630.445313
20.000000	1373.300781	101674.015625
20.000000	1372.250000	102428.523438
20.000000	1371.199219	104083.492188
20.000000	1370.148438	104918.351563
20.000000	1369.097656	105165.304688
20.000000	1368.046875	104437.921875
20.000000	1366.995117	103667.875000
20.000000	1365.943359	101415.968750
20.000000	1364.891602	99496.734375
20.000000	1363.839844	97313.507813
20.000000	1362.787109	95021.515625
20.000000	1361.735352	93140.679688
20.000000	1360.682617	91055.625000
20.000000	1359.628906	88506.656250
20.000000	1358.576172	87002.609375
20.000000	1357.522461	85208.531250
20.000000	1356.468750	84908.789063
20.000000	1355.415039	83244.546875
20.000000	1354.360352	82685.812500
20.000000	1353.306641	81170.367188
20.000000	1352.251953	79993.523438
20.000000	1351.196289	78579.250000
20.000000	1350.141602	77765.085938
20.000000	1349.085938	76468.445313
20.000000	1348.030273	76133.039063
20.000000	1346.974609	75341.320313
20.000000	1345.918945	74847.046875
20.000000	1344.862305	74868.640625
20.000000	1343.806641	74046.812500
20.000000	1342.749023	74465.242188
20.000000	1341.692383	74230.414063
20.000000	1340.635742	74783.937500
20.000000	1339.578125	75690.890625
20.000000	1338.520508	76172.640625
20.000000	1337.462891	76981.593750
20.000000	1336.404297	77745.125000
20.000000	1335.345703	78022.117188
20.000000	1334.287109	78315.585938
20.000000	1333.228516	77760.250000
20.000000	1332.169922	76686.093750
20.000000	1331.110352	74920.500000
20.000000	1330.050781	73646.070313
20.000000	1328.991211	71292.148438
20.000000	1327.930664	69022.132813
20.000000	1326.871094	66547.148438
20.000000	1325.810547	65008.183594
20.000000	1324.750000	63382.335938
20.000000	1323.688477	61584.488281
20.000000	1322.627930	61523.621094
20.000000	1321.566406	60069.867188
20.000000	1320.504883	59382.796875
20.000000	1319.443359	58859.125000
20.000000	1318.380859	58260.054688
20.000000	1317.318359	58273.203125
20.000000	1316.255859	57275.296875
20.000000	1315.193359	57083.175781
20.000000	1314.129883	56817.933594
20.000000	1313.067383	56642.511719
20.000000	1312.003906	56526.167969
20.000000	1310.939453	56306.046875
20.000000	1309.875977	57039.105469
20.000000	1308.811523	57748.250000
20.000000	1307.747070	58678.738281
20.000000	1306.682617	59526.292969
20.000000	1305.617188	60599.746094
20.000000	1304.552734	61389.933594
20.000000	1303.487305	62302.281250
20.000000	1302.421875	63171.824219
20.000000	1301.355469	64354.183594
20.000000	1300.290039	65493.636719
20.000000	1299.223633	66060.578125
20.000000	1298.157227	66615.492188
20.000000	1297.089844	67734.851563
20.000000	1296.023438	68625.523438
20.000000	1294.956055	68379.859375
20.000000	1293.888672	68625.726563
20.000000	1292.820313	68149.781250
20.000000	1291.752930	67453.109375
20.000000	1290.684570	66183.398438
20.000000	1289.616211	65273.683594
20.000000	1288.546875	64075.468750
20.000000	1287.478516	62908.308594
20.000000	1286.409180	62232.324219
20.000000	1285.339844	61671.644531
20.000000	1284.270508	60620.757813
20.000000	1283.200195	60424.320313
20.000000	1282.129883	59650.949219
20.000000	1281.059570	60022.312500
20.000000	1279.989258	59941.007813
20.000000	1278.918945	59119.015625
20.000000	1277.847656	58684.062500
20.000000	1276.776367	58015.000000
20.000000	1275.705078	57177.570313
20.000000	1274.632813	56933.019531
20.000000	1273.561523	56749.453125
20.000000	1272.489258	56125.871094
20.000000	1271.416016	56986.371094
20.000000	1270.343750	56730.363281
20.000000	1269.270508	56766.882813
20.000000	1268.197266	57462.933594
20.000000	1267.124023	57410.410156
20.000000	1266.050781	58138.726563
20.000000	1264.976563	58237.988281
20.000000	1263.902344	58344.207031
20.000000	1262.828125	58518.128906
20.000000	1261.753906	58930.210938
20.000000	1260.678711	58805.003906
20.000000	1259.603516	59522.671875
20.000000	1258.528320	59271.335938
20.000000	1257.452148	59454.164063
20.000000	1256.376953	59655.570313
20.000000	1255.300781	59492.996094
20.000000	1254.224609	58826.757813
20.000000	1253.147461	58372.984375
20.000000	1252.071289	57798.195313
20.000000	1250.994141	57305.222656
20.000000	1249.916992	57867.957031
20.000000	1248.839844	57142.234375
20.000000	1247.761719	56966.460938
20.000000	1246.683594	56695.296875
20.000000	1245.605469	56449.855469
20.000000	1244.527344	55862.386719
20.000000	1243.448242	55377.562500
20.000000	1242.369141	55707.175781
20.000000	1241.290039	55492.386719
20.000000	1240.210938	55005.628906
20.000000	1239.130859	55295.566406
20.000000	1238.050781	55306.457031
20.000000	1236.970703	54840.964844
20.000000	1235.890625	55044.769531
20.000000	1234.810547	55564.371094
20.000000	1233.729492	55677.347656
20.000000	1232.648438	56289.433594
20.000000	1231.566406	57929.519531
20.000000	1230.485352	59051.363281
20.000000	1229.403320	59458.093750
20.000000	1228.321289	60470.058594
20.000000	1227.239258	61200.953125
20.000000	1226.156250	61831.820313
20.000000	1225.073242	61748.433594
20.000000	1223.990234	61451.863281
20.000000	1222.907227	61489.074219
20.000000	1221.823242	60856.792969
20.000000	1220.740234	60745.886719
20.000000	1219.656250	59919.546875
20.000000	1218.571289	59436.179688
20.000000	1217.487305	58434.597656
20.000000	1216.402344	57875.410156
20.000000	1215.317383	57297.964844
20.000000	1214.232422	57130.148438
20.000000	1213.146484	57066.460938
20.000000	1212.060547	57319.515625
20.000000	1210.974609	57306.648438
20.000000	1209.888672	58416.828125
20.000000	1208.802734	58745.632813
20.000000	1207.715820	60095.195313
20.000000	1206.628906	60885.308594
20.000000	1205.541992	62663.195313
20.000000	1204.454102	62898.402344
20.000000	1203.366211	64121.179688
20.000000	1202.278320	64842.750000
20.000000	1201.190430	66721.921875
20.000000	1200.101563	67717.000000
20.000000	1199.013672	69915.156250
20.000000	1197.924805	72568.710938
20.000000	1196.834961	73932.820313
20.000000	1195.746094	76547.406250
20.000000	1194.656250	77679.640625
20.000000	1193.566406	80591.578125
20.000000	1192.476563	83672.585938
20.000000	1191.385742	86312.523438
20.000000	1190.294922	90049.054688
20.000000	1189.204102	92398.734375
20.000000	1188.113281	94588.609375
20.000000	1187.021484	98249.429688
20.000000	1185.930664	101646.460938
20.000000	1184.838867	104646.546875
20.000000	1183.746094	108585.296875
20.000000	1182.654297	113354.062500
20.000000	1181.561523	118442.296875
20.000000	1180.468750	123268.687500
20.000000	1179.375977	128531.468750
20.000000	1178.282227	133022.796875
20.000000	1177.188477	137115.000000
20.000000	1176.094727	139284.671875
20.000000	1175.000977	142107.187500
20.000000	1173.906250	144102.687500
20.000000	1172.811523	0.000000
20.000000	1171.716797	0.000000
20.000000	1170.622070	0.000000
20.000000	1169.526367	0.000000
20.000000	1168.431641	0.000000
20.000000	1167.334961	0.000000
20.000000	1166.239258	0.000000
20.000000	1165.143555	0.000000
20.000000	1164.046875	0.000000
20.000000	1162.950195	0.000000
20.000000	1161.852539	0.000000
20.000000	1160.755859	0.000000
20.000000	1159.658203	0.000000
20.000000	1158.560547	0.000000
20.000000	1157.461914	143607.500000
20.000000	1156.364258	139251.000000
20.000000	1155.265625	136715.203125
20.000000	1154.166992	132761.984375
20.000000	1153.067383	128518.195313
20.000000	1151.967773	124413.328125
20.000000	1150.869141	121700.531250
20.000000	1149.768555	117192.796875
20.000000	1148.668945	113330.562500
20.000000	1147.568359	109686.781250
20.000000	1146.467773	105246.390625
20.000000	1145.367188	101243.523438
20.000000	1144.266602	97035.015625
20.000000	1143.165039	93888.226563
20.000000	1142.063477	90401.062500
20.000000	1140.961914	87965.687500
20.000000	1139.859375	84378.937500
20.000000	1138.757813	81465.562500
20.000000	1137.655273	78963.281250
20.000000	1136.551758	76416.609375
20.000000	1135.449219	73939.359375
20.000000	1134.345703	71549.679688
20.000000	1133.242188	68665.234375
20.000000	1132.138672	67353.421875
20.000000	1131.034180	66139.968750
20.000000	1129.929688	65115.707031
20.000000	1128.825195	64480.500000
20.000000	1127.720703	64156.824219
20.000000	1126.616211	63354.027344
20.000000	1125.510742	61802.195313
20.000000	1124.405273	60852.714844
20.000000	1123.298828	59283.988281
20.000000	1122.193359	58850.640625
20.000000	1121.086914	57954.644531
20.000000	1119.980469	57669.226563
20.000000	1118.873047	57635.656250
20.000000	1117.766602	57486.464844
20.000000	1116.659180	57681.878906
20.000000	1115.551758	57331.039063
20.000000	1114.443359	57104.964844
20.000000	1113.335938	56863.136719
20.000000	1112.227539	55923.890625
20.000000	1111.118164	55958.656250
20.000000	1110.009766	55201.125000
20.000000	1108.900391	54251.570313
20.000000	1107.791016	53766.277344
20.000000	1106.681641	52579.957031
20.000000	1105.572266	52115.613281
20.000000	1104.461914	51775.832031
20.000000	1103.351563	51388.730469
20.000000	1102.241211	50793.882813
20.000000	1101.129883	50368.761719
20.000000	1100.018555	49275.171875
20.000000	1098.907227	48315.328125
20.000000	1097.795898	48283.937500
20.000000	1096.683594	47329.265625
20.000000	1095.572266	46402.109375
20.000000	1094.458984	45624.296875
20.000000	1093.346680	44194.886719
20.000000	1092.234375	43226.218750
20.000000	1091.121094	43101.304688
20.000000	1090.006836	42347.484375
20.000000	1088.893555	42308.464844
20.000000	1087.779297	41757.964844
20.000000	1086.666016	42156.125000
20.000000	1085.550781	41871.667969
20.000000	1084.436523	41882.312500
20.000000	1083.321289	42354.449219
20.000000	1082.206055	42218.675781
20.000000	1081.090820	42328.230469
20.000000	1079.974609	41517.617188
20.000000	1078.859375	41127.960938
20.000000	1077.743164	40785.703125
20.000000	1076.625977	39861.332031
20.000000	1075.509766	40099.394531
20.000000	1074.392578	39908.152344
20.000000	1073.275391	39712.496094
20.000000	1072.158203	39584.312500
20.000000	1071.040039	39597.648438
20.000000	1069.921875	39822.007813
20.000000	1068.803711	40109.101563
20.000000	1067.685547	40209.812500
20.000000	1066.566406	40474.242188
20.000000	1065.447266	41373.300781
20.000000	1064.328125	41155.210938
20.000000	1063.208008	41006.718750
20.000000	1062.088867	40596.046875
20.000000	1060.968750	40570.988281
20.000000	1059.847656	40532.500000
20.000000	1058.727539	40812.078125
20.000000	1057.606445	40406.292969
20.000000	1056.485352	40587.253906
20.000000	1055.364258	40425.671875
20.000000	1054.242188	40035.910156
20.000000	1053.120117	39429.304688
20.000000	1051.998047	39075.730469
20.000000	1050.875977	38319.796875
20.000000	1049.752930	37302.632813
20.000000	1048.629883	36741.910156
20.000000	1047.506836	36416.085938
20.000000	1046.383789	35498.355469
20.000000	1045.259766	34804.414063
20.000000	1044.135742	34968.300781
20.000000	1043.011719	34460.097656
20.000000	1041.886719	34284.707031
20.000000	1040.762695	33576.050781
20.000000	1039.637695	33686.511719
20.000000	1038.511719	33315.125000
20.000000	1037.386719	33019.726563
20.000000	1036.260742	33056.656250
20.000000	1035.134766	32870.667969
20.000000	1034.007813	32395.062500
20.000000	1032.881836	32423.189453
20.000000	1031.754883	32538.167969
20.000000	1030.627930	32254.474609
20.000000	1029.500000	32028.794922
20.000000	1028.372070	32061.417969
20.000000	1027.245117	31913.769531
20.000000	1026.116211	31924.148438
20.000000	1024.988281	32308.205078
20.000000	1023.859375	32120.562500
20.000000	1022.730469	32266.496094
20.000000	1021.601563	32247.873047
20.000000	1020.471680	32373.701172
20.000000	1019.341797	32821.617188
20.000000	1018.211914	32800.648438
20.000000	1017.082031	32910.703125
20.000000	1015.951172	33073.992188
20.000000	1014.820313	33294.906250
20.000000	1013.689453	33568.976563
20.000000	1012.557617	33186.203125
20.000000	1011.426758	33375.875000
20.000000	1010.293945	33031.015625
20.000000	1009.162109	33021.089844
20.000000	1008.030273	33197.359375
20.000000	1006.897461	33158.585938
20.000000	1005.764648	33195.152344
20.000000	1004.630859	32979.187500
20.000000	1003.498047	33719.980469
20.000000	1002.364258	33887.003906
20.000000	1001.230469	34346.121094
20.000000	1000.095703	34762.976563
20.000000	998.960938	34854.406250
20.000000	997.826172	35036.476563
20.000000	996.691406	35545.742188
20.000000	995.556641	35605.960938
20.000000	994.420898	35772.242188
20.000000	993.285156	36106.390625
20.000000	992.148438	36340.957031
20.000000	991.012695	36758.742188
20.000000	989.875977	37112.285156
20.000000	988.739258	37609.164063
20.000000	987.601563	38174.230469
20.000000	986.463867	38454.359375
20.000000	985.326172	39102.789063
20.000000	984.188477	39334.035156
20.000000	983.049805	39547.527344
20.000000	981.912109	39941.695313
20.000000	980.773438	39601.695313
20.000000	979.633789	39967.011719
20.000000	978.495117	40056.761719
20.000000	977.355469	39776.429688
20.000000	976.214844	39982.886719
20.000000	975.075195	40057.144531
20.000000	973.934570	40756.457031
20.000000	972.793945	40683.054688
20.000000	971.653320	41392.878906
20.000000	970.511719	41732.855469
20.000000	969.370117	41806.593750
20.000000	968.228516	41853.906250
20.000000	967.086914	42211.101563
20.000000	965.944336	42166.000000
20.000000	964.801758	41690.324219
20.000000	963.659180	41568.484375
20.000000	962.516602	41934.171875
20.000000	961.373047	41836.468750
20.000000	960.229492	42386.277344
20.000000	959.084961	42795.386719
20.000000	957.941406	43333.734375
20.000000	956.796875	44128.429688
20.000000	955.652344	43374.667969
20.000000	954.506836	43664.757813
20.000000	953.362305	42698.855469
20.000000	952.216797	42029.218750
20.000000	951.070313	41736.683594
20.000000	949.924805	41718.054688
20.000000	948.778320	41178.296875
20.000000	947.631836	41396.222656
20.000000	946.485352	40891.800781
20.000000	945.337891	40844.925781
20.000000	944.190430	41054.011719
20.000000	943.042969	41516.687500
20.000000	941.894531	41362.542969
20.000000	940.747070	42391.097656
20.000000	939.597656	42092.562500
20.000000	938.449219	42543.613281
20.000000	937.300781	42605.609375
20.000000	936.151367	42597.687500
20.000000	935.001953	42266.613281
20.000000	933.851563	42005.550781
20.000000	932.701172	41227.378906
20.000000	931.550781	40951.398438
20.000000	930.400391	40967.847656
20.000000	929.250000	41228.535156
20.000000	928.098633	41861.925781
20.000000	926.947266	42954.945313
20.000000	925.794922	44520.343750
20.000000	924.642578	45734.214844
20.000000	923.490234	48014.835938
20.000000	922.337891	51047.855469
20.000000	921.185547	54155.625000
20.000000	920.032227	56787.394531
20.000000	918.878906	57868.472656
20.000000	917.724609	58100.531250
20.000000	916.571289	58752.273438
20.000000	915.416992	57568.328125
20.000000	914.262695	56387.113281
20.000000	913.107422	54841.296875
20.000000	911.952148	52957.214844
20.000000	910.796875	50774.214844
20.000000	909.641602	49274.265625
20.000000	908.485352	47953.085938
20.000000	907.329102	46604.308594
20.000000	906.172852	45540.500000
20.000000	905.016602	44609.562500
20.000000	903.859375	44115.117188
20.000000	902.702148	44607.750000
20.000000	901.544922	43703.703125
20.000000	900.386719	43075.406250
20.000000	899.228516	42562.269531
20.000000	898.070313	42060.210938
20.000000	896.911133	40269.433594
20.000000	895.752930	39770.316406
20.000000	894.593750	39161.007813
20.000000	893.433594	38331.179688
20.000000	892.274414	37871.828125
20.000000	891.114258	37598.773438
20.000000	889.954102	36919.160156
20.000000	888.792969	37325.535156
20.000000	887.632813	37448.464844
20.000000	886.470703	36942.296875
20.000000	885.309570	37406.703125
20.000000	884.148438	37704.519531
20.000000	882.986328	38775.492188
20.000000	881.824219	39668.863281
20.000000	880.661133	40274.648438
20.000000	879.498047	40297.335938
20.000000	878.334961	40384.750000
20.000000	877.171875	39950.003906
20.000000	876.007813	39537.035156
20.000000	874.843750	39577.109375
20.000000	873.679688	39408.035156
20.000000	872.515625	39047.207031
20.000000	871.350586	39005.468750
20.000000	870.185547	38778.472656
20.000000	869.020508	37797.734375
20.000000	867.854492	37917.812500
20.000000	866.688477	37131.500000
20.000000	865.522461	36866.414063
20.000000	864.356445	36007.562500
20.000000	863.189453	35564.312500
20.000000	862.022461	35519.156250
20.000000	860.854492	35802.996094
20.000000	859.687500	36297.363281
20.000000	858.519531	36417.531250
20.000000	857.351563	36647.218750
20.000000	856.182617	37476.117188
20.000000	855.013672	37793.476563
20.000000	853.844727	38645.300781
20.000000	852.675781	39816.546875
20.000000	851.505859	40714.671875
20.000000	850.335938	41054.523438
20.000000	849.166016	41413.507813
20.000000	847.995117	41868.812500
20.000000	846.825195	41524.195313
20.000000	845.653320	41737.031250
20.000000	844.482422	41849.042969
20.000000	843.310547	42173.093750
20.000000	842.138672	42299.925781
20.000000	840.966797	42456.671875
20.000000	839.793945	42283.644531
20.000000	838.622070	42558.023438
20.000000	837.448242	42943.535156
20.000000	836.275391	42175.781250
20.000000	835.101563	42233.953125
20.000000	833.927734	42073.992188
20.000000	832.753906	42484.871094
20.000000	831.579102	42275.761719
20.000000	830.404297	42575.273438
20.000000	829.229492	43011.347656
20.000000	828.054688	43193.066406
20.000000	826.878906	42601.777344
20.000000	825.703125	43157.042969
20.000000	824.526367	42777.316406
20.000000	823.350586	42276.152344
20.000000	822.173828	42024.792969
20.000000	820.996094	40775.539063
20.000000	819.819336	40535.320313
20.000000	818.641602	40009.593750
20.000000	817.463867	39888.996094
20.000000	816.285156	39429.718750
20.000000	815.107422	39884.382813
20.000000	813.928711	39384.863281
20.000000	812.749023	39786.082031
20.000000	811.570313	39895.519531
20.000000	810.390625	40126.183594
20.000000	809.209961	40965.132813
20.000000	808.030273	41582.480469
20.000000	806.849609	41818.921875
20.000000	805.668945	43094.718750
20.000000	804.488281	44131.859375
20.000000	803.306641	44834.914063
20.000000	802.125000	45890.222656
20.000000	800.943359	46800.601563
20.000000	799.760742	46874.019531
20.000000	798.578125	46391.277344
20.000000	797.395508	46154.925781
20.000000	796.211914	45670.460938
20.000000	795.029297	45084.421875
20.000000	793.844727	44568.640625
20.000000	792.661133	43675.750000
20.000000	791.476563	42461.136719
20.000000	790.291992	41844.656250
20.000000	789.107422	40868.343750
20.000000	787.922852	40066.171875
20.000000	786.737305	38910.789063
20.000000	785.550781	38016.343750
20.000000	784.365234	37048.265625
20.000000	783.178711	36577.871094
20.000000	781.992188	36171.160156
20.000000	780.805664	35282.480469
20.000000	779.618164	34343.496094
20.000000	778.430664	33895.351563
20.000000	777.243164	33515.042969
20.000000	776.054688	32799.007813
20.000000	774.866211	32700.062500
20.000000	773.677734	32470.242188
20.000000	772.489258	32825.304688
20.000000	771.299805	32768.625000
20.000000	770.110352	33167.734375
20.000000	768.919922	33123.644531
20.000000	767.730469	33391.703125
20.000000	766.540039	33571.066406
20.000000	765.348633	34321.593750
20.000000	764.158203	35362.562500
20.000000	762.966797	36971.875000
20.000000	761.774414	38788.910156
20.000000	760.583008	40204.925781
20.000000	759.390625	40853.890625
20.000000	758.198242	40191.234375
20.000000	757.005859	38954.433594
20.000000	755.812500	37987.523438
20.000000	754.619141	37292.402344
20.000000	753.424805	36683.835938
20.000000	752.231445	36172.269531
20.000000	751.037109	36730.695313
20.000000	749.842773	37095.535156
20.000000	748.647461	37214.414063
20.000000	747.452148	37383.628906
20.000000	746.256836	37286.109375
20.000000	745.060547	37492.992188
20.000000	743.865234	38050.218750
20.000000	742.668945	38800.175781
20.000000	741.471680	40048.949219
20.000000	740.274414	41735.347656
20.000000	739.077148	43010.003906
20.000000	737.879883	44219.039063
20.000000	736.681641	44918.289063
20.000000	735.484375	46457.210938
20.000000	734.285156	47775.453125
20.000000	733.086914	49836.320313
20.000000	731.887695	52038.488281
20.000000	730.688477	53358.500000
20.000000	729.488281	53290.707031
20.000000	728.288086	51315.320313
20.000000	727.087891	49069.070313
20.000000	725.887695	47346.597656
20.000000	724.686523	45886.246094
20.000000	723.485352	44514.382813
20.000000	722.284180	42589.605469
20.000000	721.082031	41340.386719
20.000000	719.879883	39488.355469
20.000000	718.677734	37409.714844
20.000000	717.474609	35956.113281
20.000000	716.272461	34348.847656
20.000000	715.068359	33078.210938
20.000000	713.865234	32194.009766
20.000000	712.661133	31633.398438
20.000000	711.457031	31644.169922
20.000000	710.251953	31231.919922
20.000000	709.047852	31557.351563
20.000000	707.842773	31303.609375
20.000000	706.636719	31637.175781
20.000000	705.431641	31543.822266
20.000000	704.225586	31806.390625
20.000000	703.018555	31388.453125
20.000000	701.812500	31700.837891
20.000000	700.605469	31262.332031
20.000000	699.397461	31370.833984
20.000000	698.190430	31285.974609
20.000000	696.982422	31714.417969
20.000000	695.774414	31758.304688
20.000000	694.565430	31764.781250
20.000000	693.356445	31787.859375
20.000000	692.147461	31653.152344
20.000000	690.938477	30900.052734
20.000000	689.728516	30437.806641
20.000000	688.518555	30075.357422
20.000000	687.308594	29623.914063
20.000000	686.097656	29840.283203
20.000000	684.886719	29517.630859
20.000000	683.674805	29814.720703
20.000000	682.463867	29591.667969
20.000000	681.251953	29745.671875
20.000000	680.040039	29862.320313
20.000000	678.827148	29755.335938
20.000000	677.614258	29820.171875
20.000000	676.401367	30118.771484
20.000000	675.187500	29993.171875
20.000000	673.973633	30471.476563
20.000000	672.759766	30653.888672
20.000000	671.545898	31028.425781
20.000000	670.331055	31448.224609
20.000000	669.116211	31907.054688
20.000000	667.900391	32537.066406
20.000000	666.684570	32952.011719
20.000000	665.468750	33127.285156
20.000000	664.252930	33040.367188
20.000000	663.036133	33446.593750
20.000000	661.819336	33231.742188
20.000000	660.602539	33571.710938
20.000000	659.384766	33822.851563
20.000000	658.166992	34566.457031
20.000000	656.948242	34841.925781
20.000000	655.730469	34960.687500
20.000000	654.511719	35849.632813
20.000000	653.291992	36369.558594
20.000000	652.073242	36913.910156
20.000000	650.853516	38182.359375
20.000000	649.633789	38577.820313
20.000000	648.413086	38236.722656
20.000000	647.192383	37990.382813
20.000000	645.971680	37688.660156
20.000000	644.750000	37528.894531
20.000000	643.528320	37500.710938
20.000000	642.306641	37248.628906
20.000000	641.084961	36859.074219
20.000000	639.862305	36469.710938
20.000000	638.639648	36667.589844
20.000000	637.416016	37130.074219
20.000000	636.192383	37495.890625
20.000000	634.968750	38017.386719
20.000000	633.745117	38423.781250
20.000000	632.520508	38602.414063
20.000000	631.295898	38955.148438
20.000000	630.070313	38883.574219
20.000000	628.844727	38855.042969
20.000000	627.619141	39162.363281
20.000000	626.393555	39103.054688
20.000000	625.166992	39864.515625
20.000000	623.940430	39240.285156
20.000000	622.712891	38657.285156
20.000000	621.486328	38808.789063
20.000000	620.258789	38586.042969
20.000000	619.030273	38469.699219
20.000000	617.802734	38739.644531
20.000000	616.573242	38929.757813
20.000000	615.344727	39865.277344
20.000000	614.115234	40185.671875
